EEG Channel 1,EEG Channel 2,EEG Channel 3,EEG Channel 4,EEG Channel 5,EEG Channel 6,EEG Channel 7,EEG Channel 8,Marker
-32002.375,24199.76171875,194540.625,12673.236328125,117322.234375,300018.5625,-17827.5703125,-21439.03125,0.0
-31710.953125,25818.609375,198430.6875,15089.83984375,119983.4609375,302657.375,-17525.017578125,-20414.427734375,0.0
-31621.3671875,26915.095703125,205806.765625,17297.767578125,122687.125,309311.40625,-17412.029296875,-19752.255859375,0.0
-31885.36328125,25449.73828125,202754.890625,15197.865234375,120419.3828125,307777.71875,-17681.322265625,-20657.30078125,0.0
-32028.056640625,24176.158203125,195459.015625,12768.455078125,117502.1484375,301033.5625,-17848.625,-21455.32421875,0.0
-31800.60546875,25226.2421875,196235.984375,14102.5859375,118855.0546875,300936.0625,-17602.265625,-20769.349609375,0.0
-31570.47265625,26938.431640625,204589.78125,17161.98046875,122454.2421875,308005.90625,-17360.6640625,-19713.69921875,0.0
-31776.935546875,25978.400390625,204471.703125,16010.306640625,121320.3359375,309094.15625,-17561.62890625,-20306.267578125,0.0
-31991.646484375,24367.734375,197086.03125,13174.2734375,117997.078125,302672.40625,-17812.68359375,-21324.3671875,0.0
-31869.068359375,24718.970703125,194748.765625,13335.8095703125,117972.1328125,299842.59375,-17677.232421875,-21084.173828125,0.0
-31576.3046875,26700.5859375,202559.015625,16695.208984375,121845.109375,306119.5625,-17365.693359375,-19856.259765625,0.0
-31708.60546875,26428.005859375,205582.0,16702.31640625,122071.0234375,309754.71875,-17475.6640625,-20024.298828125,0.0
-31974.2109375,24678.0,199053.96875,13785.146484375,118739.4453125,304557.3125,-17776.138671875,-21113.478515625,0.0
-31956.0390625,24359.21875,194203.265625,12818.142578125,117432.4765625,299587.71875,-17760.849609375,-21305.255859375,0.0
-31636.72265625,26270.830078125,200163.40625,15866.6748046875,120867.3125,304082.15625,-17430.8046875,-20113.953125,0.0
-31632.029296875,26801.236328125,205977.625,17213.009765625,122606.0546875,309732.03125,-17407.267578125,-19794.232421875,0.0
-31909.16796875,25122.642578125,201154.875,14603.6220703125,119704.171875,306442.03125,-17704.189453125,-20833.857421875,0.0
-31994.193359375,24195.201171875,194592.984375,12657.1435546875,117296.7578125,300144.28125,-17803.095703125,-21414.689453125,0.0
-31717.79296875,25699.51953125,197747.796875,14885.455078125,119710.40625,302119.71875,-17511.271484375,-20475.24609375,0.0
-31587.705078125,26976.18359375,205540.625,17311.044921875,122641.5234375,309045.59375,-17364.5546875,-19696.869140625,0.0
-31847.275390625,25614.89453125,203181.5625,15417.0693359375,120616.5234375,308156.03125,-17631.634765625,-20543.642578125,0.0
-32005.7265625,24242.744140625,195777.59375,12879.5654296875,117579.859375,301391.125,-17819.322265625,-21405.033203125,0.0
-31809.0546875,25131.091796875,195797.09375,13953.923828125,118622.234375,300623.40625,-17599.783203125,-20822.189453125,0.0
-31565.912109375,26926.427734375,204184.90625,17133.34765625,122347.6875,307634.875,-17352.283203125,-19727.37890625,0.0
-31760.841796875,26115.060546875,204842.046875,16278.728515625,121567.5,309361.09375,-17542.787109375,-20233.4453125,0.0
-31992.181640625,24447.732421875,197590.890625,13392.5380859375,118209.9140625,303157.40625,-17808.125,-21278.232421875,0.0
-31901.255859375,24637.69921875,194605.390625,13270.6318359375,117867.59375,299763.0625,-17707.609375,-21145.798828125,0.0
-31590.521484375,26643.58984375,202118.0,16585.9765625,121669.9609375,305735.8125,-17388.08984375,-19906.953125,0.0
-31691.57421875,26550.248046875,205919.75,16889.736328125,122234.03125,309972.78125,-17470.30078125,-19960.73046875,0.0
-31962.208984375,24801.58203125,199736.59375,14015.078125,118979.84375,305187.5,-17762.794921875,-21051.65234375,0.0
-31973.541015625,24326.83203125,194355.875,12820.2880859375,117423.2890625,299757.84375,-17764.671875,-21351.1875,0.0
-31663.142578125,26156.8359375,199731.15625,15649.5498046875,120590.9140625,303731.75,-17447.970703125,-20202.935546875,0.0
-31629.94921875,26872.58203125,206145.328125,17259.947265625,122631.265625,309802.375,-17405.32421875,-19774.921875,0.0
-31899.04296875,25257.22265625,201889.0625,14750.7412109375,119856.390625,307110.65625,-17689.97265625,-20777.330078125,0.0
-32008.611328125,24216.525390625,194988.21875,12710.5859375,117347.5859375,300536.21875,-17823.078125,-21436.080078125,0.0
-31745.083984375,25576.740234375,197375.984375,14673.76171875,119455.1328125,301834.625,-17551.302734375,-20565.904296875,0.0
-31830.712890625,25745.31640625,203774.390625,15624.1357421875,120848.8046875,308623.28125,-17630.830078125,-20473.033203125,0.0
-32009.482421875,24284.85546875,196306.78125,12987.189453125,117716.3203125,301891.75,-17846.94921875,-21402.75390625,0.0
-31843.923828125,24995.439453125,195530.75,13779.6474609375,118443.6015625,300414.3125,-17667.978515625,-20948.185546875,0.0
-31579.189453125,26854.8125,203819.859375,16976.03515625,122177.640625,307289.21875,-17400.16015625,-19794.568359375,0.0
-31754.068359375,26211.08203125,205235.125,16369.6552734375,121683.3046875,309653.71875,-17561.361328125,-20197.369140625,0.0
-31992.853515625,24517.603515625,198124.125,13515.3828125,118372.0546875,303666.84375,-17836.556640625,-21269.984375,0.0
-31933.509765625,24511.166015625,194470.28125,13082.67578125,117672.6015625,299705.125,-17764.203125,-21249.197265625,0.0
-31622.841796875,26480.51171875,201509.609375,16302.33203125,121348.1640625,305225.65625,-17446.8984375,-20021.818359375,0.0
-31686.34375,26599.869140625,206001.703125,16985.55859375,122336.890625,309949.3125,-17497.994140625,-19954.427734375,0.0
-31959.2578125,24854.890625,200203.765625,14185.4658203125,119175.0390625,305611.09375,-17788.0078125,-21034.822265625,0.0
-31990.037109375,24228.9296875,194375.46875,12738.615234375,117317.0703125,299844.6875,-17828.912109375,-21427.966796875,0.0
-31687.21484375,25966.0625,199042.4375,15369.6611328125,120229.8828125,303185.5,-17518.982421875,-20340.666015625,0.0
-31618.953125,26870.771484375,205956.5,17282.009765625,122595.4609375,309571.5,-17438.046875,-19787.9296875,0.0
-31892.203125,25327.294921875,202237.421875,15044.9130859375,120149.6171875,307377.34375,-17726.853515625,-20748.697265625,0.0
-32003.916015625,24172.603515625,195128.359375,12803.7255859375,117427.046875,300702.25,-17861.634765625,-21471.6875,0.0
-31759.76953125,25379.93359375,196749.953125,14424.853515625,119127.8359375,301351.46875,-17597.638671875,-20687.408203125,0.0
-31572.685546875,26947.685546875,204983.265625,17284.7578125,122529.140625,308427.625,-17399.7578125,-19742.6015625,0.0
-31805.701171875,25821.4921875,204085.53125,15790.4326171875,120990.15625,308864.5625,-17625.869140625,-20431.99609375,0.0
-32002.44140625,24302.69140625,196615.046875,13096.220703125,117803.359375,302223.53125,-17860.091796875,-21409.125,0.0
-31857.19921875,24845.369140625,195089.0625,13551.5927734375,118137.765625,300101.15625,-17696.41015625,-21048.76953125,0.0
-31587.16796875,26781.3203125,203180.28125,16841.791015625,121965.9453125,306696.71875,-17408.474609375,-19857.66796875,0.0
-31741.6640625,26312.068359375,205384.71875,16535.68359375,121828.484375,309686.125,-17542.921875,-20142.919921875,0.0
-31982.794921875,24584.390625,198547.5,13626.2255859375,118475.453125,304076.75,-17822.00390625,-21219.15625,0.0
-31934.71484375,24444.4453125,194319.875,12935.623046875,117478.9453125,299628.09375,-17760.716796875,-21296.203125,0.0
-31617.544921875,26405.140625,200879.546875,16118.265625,121089.9375,304682.78125,-17427.384765625,-20079.3515625,0.0
-31649.798828125,26720.634765625,206013.4375,17132.87890625,122463.4921875,309854.75,-17443.142578125,-19887.306640625,0.0
-31994.26171875,24223.6328125,194492.078125,12699.3212890625,117256.1171875,299990.875,-17815.568359375,-21440.3046875,0.0
-31709.74609375,25853.142578125,198436.59375,15168.6298828125,119963.203125,302666.03125,-17510.869140625,-20417.9140625,0.0
-31611.107421875,26941.8515625,205817.765625,17367.50390625,122646.890625,309330.65625,-17400.361328125,-19752.7265625,0.0
-31877.115234375,25461.271484375,202769.4375,15235.8857421875,120339.1171875,307801.53125,-17674.28125,-20646.236328125,0.0
-32025.576171875,24192.654296875,195503.734375,12841.6123046875,117456.484375,301057.5,-17846.279296875,-21446.607421875,0.0
-31796.447265625,25253.1328125,196354.59375,14211.2822265625,118849.890625,301025.53125,-17610.646484375,-20770.021484375,0.0
-31585.4921875,26931.994140625,204676.15625,17242.3125,122426.953125,308076.53125,-17387.6875,-19752.123046875,0.0
-31799.666015625,25956.2734375,204492.828125,16061.6044921875,121266.0859375,309103.0,-17586.037109375,-20341.939453125,0.0
-32009.146484375,24364.248046875,197141.625,13243.8095703125,117961.140625,302692.4375,-17828.375,-21340.59375,0.0
-31881.876953125,24737.947265625,194915.859375,13422.712890625,117973.4765625,299963.15625,-17684.810546875,-21091.283203125,0.0
-31584.21875,26723.451171875,202786.609375,16752.33984375,121813.7265625,306312.625,-17377.09375,-19873.693359375,0.0
-31963.416015625,24698.787109375,199185.609375,13900.1455078125,118773.78125,304622.90625,-17769.298828125,-21134.935546875,0.0
-31938.939453125,24382.95703125,194406.90625,12926.5712890625,117461.578125,299723.71875,-17750.79296875,-21316.453125,0.0
-31618.21484375,26273.443359375,200384.890625,15984.423828125,120910.0234375,304228.15625,-17424.3671875,-20134.740234375,0.0
-31621.634765625,26782.86328125,206148.28125,17286.099609375,122605.8515625,309842.625,-17409.48046875,-19830.173828125,0.0
-31900.78515625,25120.564453125,201321.171875,14695.5546875,119726.296875,306542.15625,-17693.662109375,-20858.935546875,0.0
-31973.40625,24211.83203125,194768.265625,12829.5419921875,117415.78125,300222.125,-17782.912109375,-21426.759765625,0.0
-31703.107421875,25712.4609375,197989.34375,15028.283203125,119809.71875,302271.28125,-17499.669921875,-20482.689453125,0.0
-31584.419921875,26959.3515625,205729.984375,17436.83984375,122725.28125,309153.28125,-17361.87109375,-19726.640625,0.0
-31850.560546875,25587.40234375,203303.796875,15540.919921875,120709.0625,308186.15625,-17634.451171875,-20579.115234375,0.0
-32009.416015625,24218.40234375,195911.03125,12973.3759765625,117651.2734375,301435.09375,-17835.21484375,-21437.01953125,0.0
-31820.05078125,25106.68359375,195966.28125,14049.8798828125,118713.5625,300700.1875,-17617.21875,-20859.875,0.0
-31585.291015625,26895.8515625,204299.765625,17218.57421875,122430.1015625,307658.03125,-17362.876953125,-19775.45703125,0.0
-31778.87890625,26071.607421875,204901.859375,16276.3818359375,121533.9765625,309362.09375,-17540.91015625,-20272.60546875,0.0
-32009.21484375,24414.203125,197650.640625,13364.173828125,118128.5078125,303161.78125,-17812.482421875,-21310.6875,0.0
-31904.541015625,24612.888671875,194702.6875,13255.611328125,117788.9375,299804.84375,-17707.810546875,-21172.083984375,0.0
-31598.03125,26598.86328125,202199.203125,16538.568359375,121552.078125,305768.6875,-17397.27734375,-19947.923828125,0.0
-31697.474609375,26502.7734375,205871.078125,16865.796875,122132.9140625,309880.84375,-17482.7734375,-20013.97265625,0.0
-31952.955078125,24765.037109375,199658.8125,14031.0380859375,118900.515625,305038.1875,-17775.46875,-21095.775390625,0.0
-31947.1875,24313.888671875,194356.421875,12829.3408203125,117317.2109375,299700.90625,-17777.4140625,-21377.138671875,0.0
-31633.705078125,26161.328125,199728.546875,15730.015625,120562.8828125,303654.625,-17455.212890625,-20229.35546875,0.0
-31600.712890625,26865.005859375,206094.578125,17322.30859375,122578.8984375,309694.6875,-17406.26171875,-19795.306640625,0.0
-31980.58203125,24205.728515625,194933.765625,12758.8662109375,117266.2421875,300426.71875,-17807.923828125,-21444.060546875,0.0
-31717.255859375,25576.47265625,197361.828125,14732.099609375,119383.1796875,301756.15625,-17530.1796875,-20572.408203125,0.0
-31559.541015625,26981.8828125,205351.203125,17378.3671875,122563.2734375,308729.90625,-17355.30078125,-19722.015625,0.0
-31811.87109375,25730.498046875,203628.21875,15674.5615234375,120788.65625,308406.15625,-17596.095703125,-20499.251953125,0.0
-31988.76171875,24277.142578125,196172.609375,13011.1279296875,117635.3828125,301682.59375,-17812.21484375,-21406.77734375,0.0
-31816.4296875,25013.744140625,195455.125,13851.4638671875,118413.359375,300251.03125,-17623.185546875,-20936.787109375,0.0
-31560.81640625,26886.73046875,203745.015625,17099.41796875,122204.0546875,307108.78125,-17353.826171875,-19792.7578125,0.0
-31738.84765625,26210.14453125,205099.53125,16448.51171875,121658.2265625,309437.28125,-17519.25,-20199.515625,0.0
-31974.009765625,24514.048828125,198009.65625,13565.205078125,118320.7578125,303480.28125,-17789.818359375,-21260.59765625,0.0
-31902.595703125,24550.662109375,194483.484375,13169.3779296875,117662.140625,299638.28125,-17716.458984375,-21221.5703125,0.0
-31588.173828125,26525.705078125,201548.96875,16419.880859375,121374.7890625,305177.84375,-17406.865234375,-19997.611328125,0.0
-31647.787109375,26617.83984375,205952.34375,17059.720703125,122324.4921875,309836.5,-17453.73828125,-19940.01171875,0.0
-31925.39453125,24876.013671875,200150.0625,14228.11328125,119120.1171875,305490.0625,-17750.255859375,-21020.0703125,0.0
-31964.689453125,24256.490234375,194357.296875,12812.107421875,117301.515625,299730.21875,-17793.908203125,-21410.8671875,0.0
-31661.8671875,26003.412109375,199073.828125,15513.1591796875,120295.796875,303089.40625,-17479.083984375,-20324.572265625,0.0
-31596.689453125,26890.017578125,205942.75,17400.427734375,122639.578125,309438.8125,-17403.78125,-19784.779296875,0.0
-31871.818359375,25327.630859375,202249.359375,15053.361328125,120072.3046875,307297.9375,-17687.15625,-20735.0859375,0.0
-31996.67578125,24181.791015625,195172.140625,12835.107421875,117385.3984375,300642.15625,-17827.1015625,-21460.220703125,0.0
-31750.716796875,25410.041015625,196869.375,14531.9404296875,119176.3828125,301340.28125,-17559.08203125,-20674.265625,0.0
-31566.248046875,26952.51171875,205045.421875,17410.822265625,122611.484375,308366.65625,-17358.1171875,-19740.119140625,0.0
-31806.3046875,25823.03515625,204085.1875,15926.8232421875,121096.5703125,308741.375,-17587.580078125,-20422.673828125,0.0
-31996.80859375,24295.650390625,196630.125,13191.9755859375,117872.421875,302121.0625,-17807.3203125,-21372.310546875,0.0
-31846.26953125,24860.255859375,195216.8125,13685.5693359375,118247.1328125,300113.5625,-17635.994140625,-20997.875,0.0
-31568.326171875,26799.693359375,203371.59375,16976.572265625,122063.5078125,306777.1875,-17355.3671875,-19815.220703125,0.0
-31720.609375,26297.78515625,205515.75,16589.931640625,121827.4765625,309745.65625,-17501.078125,-20116.701171875,0.0
-31971.39453125,24574.33203125,198609.0625,13723.791015625,118524.671875,304050.375,-17786.0625,-21209.5,0.0
-31935.453125,24425.669921875,194408.453125,13071.611328125,117578.5234375,299599.9375,-17751.529296875,-21289.296875,0.0
-31619.48828125,26374.697265625,201034.1875,16208.5224609375,121139.9609375,304719.46875,-17430.73828125,-20074.255859375,0.0
-31651.33984375,26667.4609375,206137.421875,17125.435546875,122395.4296875,309897.28125,-17442.001953125,-19889.51953125,0.0
-31928.748046875,24955.2734375,200767.234375,14398.5,119336.3046875,306022.0625,-17741.001953125,-20954.69140625,0.0
-31987.0859375,24194.798828125,194561.265625,12780.3232421875,117310.6328125,299941.1875,-17806.91796875,-21429.107421875,0.0
-31696.06640625,25837.98828125,198593.109375,15225.291015625,120004.2421875,302717.875,-17491.7578125,-20388.41015625,0.0
-31869.470703125,25428.146484375,202748.921875,15276.119140625,120359.96875,307701.46875,-17650.880859375,-20659.111328125,0.0
-32010.82421875,24173.744140625,195501.390625,12850.6650390625,117441.328125,300988.65625,-17815.166015625,-21437.623046875,0.0
-31779.080078125,25254.943359375,196407.640625,14283.7021484375,118917.8125,300990.1875,-17563.708984375,-20737.900390625,0.0
-31556.591796875,26933.8046875,204721.140625,17303.802734375,122493.8671875,308040.375,-17338.40234375,-19719.6015625,0.0
-31771.302734375,25944.740234375,204536.75,16036.4580078125,121225.5859375,309104.8125,-17554.857421875,-20323.96875,0.0
-31987.220703125,24350.501953125,197145.25,13241.5966796875,117951.015625,302639.15625,-17812.080078125,-21330.87109375,0.0
-31860.552734375,24743.712890625,194955.484375,13457.447265625,118003.515625,299936.28125,-17678.373046875,-21073.244140625,0.0
-31559.810546875,26714.869140625,202841.921875,16755.55859375,121814.671875,306315.71875,-17374.142578125,-19864.171875,0.0
-31695.1953125,26409.431640625,205719.125,16732.15625,122001.6875,309833.75,-17490.6171875,-20057.42578125,0.0
-31948.73046875,24669.6171875,199104.40625,13865.4111328125,118724.8984375,304515.28125,-17785.056640625,-21141.9765625,0.0
-31922.578125,24370.953125,194355.8125,12907.728515625,117431.875,299637.5625,-17761.72265625,-21309.48046875,0.0
-31610.03515625,26276.4609375,200415.125,15935.40625,120842.703125,304237.34375,-17430.134765625,-20125.888671875,0.0
-31623.37890625,26763.818359375,206142.453125,17205.90234375,122493.5390625,309840.53125,-17420.74609375,-19830.375,0.0
-31909.302734375,25080.93359375,201212.28125,14626.0859375,119612.4375,306420.375,-17715.587890625,-20871.67578125,0.0
-31981.7890625,24180.650390625,194703.96875,12746.05859375,117268.390625,300153.28125,-17812.21484375,-21426.9609375,0.0
-31701.6328125,25706.357421875,198038.28125,14981.9482421875,119681.375,302309.625,-17521.59765625,-20471.759765625,0.0
-31580.396484375,26947.21484375,205716.375,17409.75,122612.359375,309125.53125,-17384.537109375,-19731.537109375,0.0
-31834.06640625,25568.359375,203229.703125,15481.173828125,120546.5859375,308109.65625,-17646.185546875,-20576.431640625,0.0
-31986.482421875,24220.4140625,195860.671875,12961.7080078125,117526.1484375,301366.5625,-17830.38671875,-21415.494140625,0.0
-31785.25,25130.689453125,196001.953125,14074.8916015625,118630.8203125,300701.5,-17610.982421875,-20831.98046875,0.0
-31557.1953125,26901.55078125,204313.984375,17228.833984375,122349.6328125,307650.5,-17369.248046875,-19762.3828125,0.0
-31771.435546875,26049.14453125,204794.296875,16252.3759765625,121449.21875,309244.15625,-17564.916015625,-20287.22265625,0.0
-32002.240234375,24402.201171875,197544.21875,13343.05078125,118065.0078125,303040.0625,-17834.544921875,-21314.576171875,0.0
-31917.68359375,24597.599609375,194698.609375,13245.150390625,117755.8828125,299782.46875,-17747.9765625,-21178.7890625,0.0
-31620.830078125,26582.234375,202243.25,16529.984375,121529.8203125,305792.5625,-17442.337890625,-19968.845703125,0.0
-31721.81640625,26464.484375,205814.015625,16856.54296875,122110.8515625,309810.90625,-17520.927734375,-20050.787109375,0.0
-31986.951171875,24723.6640625,199554.265625,14024.4658203125,118880.6015625,304914.46875,-17812.080078125,-21133.392578125,0.0
-31999.15625,24267.822265625,194330.140625,12820.4228515625,117295.75,299649.21875,-17822.33984375,-21417.572265625,0.0
-31689.830078125,26101.783203125,199788.96875,15691.9287109375,120509.5703125,303696.0625,-17491.556640625,-20275.353515625,0.0
-31671.724609375,26774.75,206071.703125,17244.66015625,122477.9140625,309667.875,-17436.7734375,-19874.765625,0.0
-31958.318359375,25143.765625,201673.6875,14765.4267578125,119738.7734375,306805.40625,-17727.92578125,-20892.462890625,0.0
-32061.71875,24116.345703125,194851.078125,12708.171875,117211.125,300304.15625,-17848.826171875,-21534.25,0.0
-31787.931640625,25494.6640625,197426.203125,14654.115234375,119283.3359375,301805.375,-17566.255859375,-20642.34765625,0.0
-31630.888671875,26882.306640625,205402.21875,17285.4296875,122427.6875,308790.1875,-17395.265625,-19802.078125,0.0
-31888.783203125,25612.4140625,203610.109375,15538.908203125,120581.7890625,308416.40625,-17646.3203125,-20583.33984375,0.0
-32067.484375,24189.703125,196192.53125,12948.498046875,117493.4921875,301707.34375,-17846.078125,-21486.572265625,0.0
-31877.853515625,24937.16796875,195549.671875,13815.1201171875,118299.765625,300348.0,-17644.30859375,-20999.751953125,0.0
-31624.65234375,26785.076171875,203857.546875,17022.103515625,122048.5546875,307236.5,-17380.78125,-19857.3984375,0.0
-31812.33984375,26094.40625,205129.25,16343.5712890625,121474.6328125,309482.875,-17555.326171875,-20283.400390625,0.0
-31977.765625,24457.65625,194549.875,13090.2529296875,117509.859375,299696.90625,-17736.375,-21299.556640625,0.0
-31672.060546875,26433.03515625,201667.65625,16347.7958984375,121237.125,305279.84375,-17420.27734375,-20074.92578125,0.0
-31752.9296875,26502.103515625,205975.078125,16960.748046875,122160.609375,309854.09375,-17477.474609375,-20035.23046875,0.0
-32024.501953125,24771.072265625,200108.625,14169.775390625,119009.2109375,305420.875,-17771.646484375,-21112.740234375,0.0
-32051.19140625,24175.287109375,194394.234375,12767.248046875,117206.5,299740.34375,-17806.314453125,-21480.939453125,0.0
-31750.515625,25918.990234375,199182.390625,15453.48046875,120195.484375,303179.53125,-17501.8828125,-20391.494140625,0.0
-31696.267578125,26778.705078125,205971.796875,17308.8984375,122509.9609375,309470.78125,-17433.15234375,-19879.59375,0.0
-32090.619140625,24079.93359375,195148.40625,12732.177734375,117222.9921875,300621.65625,-17854.59375,-21551.68359375,0.0
-31851.701171875,25313.482421875,196877.703125,14474.7421875,119063.125,301339.53125,-17592.408203125,-20772.033203125,0.0
-31661.599609375,26844.486328125,205015.1875,17326.6015625,122460.4765625,308335.75,-17387.822265625,-19839.09375,0.0
-31895.01953125,25704.078125,203984.953125,15809.2080078125,120890.3125,308648.75,-17620.1015625,-20519.033203125,0.0
-32084.919921875,24189.904296875,196550.671875,13114.794921875,117701.765625,302030.625,-17841.787109375,-21466.9921875,0.0
-31935.38671875,24768.79296875,195199.03125,13621.330078125,118079.4921875,300072.34375,-17672.806640625,-21081.224609375,0.0
-31660.9296875,26686.50390625,203303.796875,16914.076171875,121888.96875,306688.9375,-17390.37109375,-19913.12109375,0.0
-31817.16796875,26187.546875,205364.875,16523.546875,121641.3984375,309575.46875,-17534.47265625,-20220.16796875,0.0
-32066.2109375,24469.189453125,198524.96875,13616.30078125,118283.9453125,303949.40625,-17813.421875,-21289.228515625,0.0
-32019.271484375,24353.51953125,194363.65625,13025.41015625,117399.6875,299536.625,-17756.0234375,-21354.80859375,0.0
-31713.3671875,26302.27734375,200991.875,16175.59765625,120976.0078125,304663.0,-17441.734375,-20148.888671875,0.0
-31760.9765625,26572.509765625,205990.234375,17093.115234375,122228.1328125,309747.40625,-17466.880859375,-19984.06640625,0.0
-32027.990234375,24870.380859375,200596.78125,14375.7685546875,119170.9453125,305844.03125,-17753.876953125,-21031.73828125,0.0
-32077.611328125,24126.537109375,194499.78125,12726.27734375,117093.7109375,299893.3125,-17809.130859375,-21491.6015625,0.0
-31782.232421875,25772.943359375,198590.75,15211.947265625,119836.8046875,302716.375,-17493.232421875,-20462.7734375,0.0
-31690.568359375,26821.6875,205820.71875,17395.19921875,122515.6640625,309252.71875,-17377.49609375,-19822.53125,0.0
-31950.2734375,25347.6796875,202658.859375,15229.7841796875,120170.7421875,307610.9375,-17646.857421875,-20712.48828125,0.0
-32086.931640625,24098.373046875,195427.15625,12848.18359375,117305.609375,300891.875,-17813.82421875,-21496.83203125,0.0
-31659.521484375,26832.349609375,204723.890625,17263.904296875,122302.828125,308031.46875,-17355.501953125,-19806.7734375,0.0
-31887.7109375,25824.443359375,204397.0,16021.03515625,121055.671875,308936.78125,-17576.984375,-20422.271484375,0.0
-32093.703125,24237.916015625,197005.4375,13233.7509765625,117780.421875,302462.71875,-17823.279296875,-21421.865234375,0.0
-31965.560546875,24637.029296875,194922.5625,13457.5146484375,117840.7734375,299865.59375,-17684.7421875,-21149.955078125,0.0
-31670.31640625,26605.099609375,202814.296875,16808.263671875,121713.3515625,306235.5,-17378.3671875,-19944.771484375,0.0
-31795.7109375,26277.6015625,205611.296875,16732.021484375,121842.1640625,309689.125,-17488.0703125,-20141.84765625,0.0
-32044.41796875,24556.2265625,199033.921875,13827.390625,118510.453125,304415.5,-17764.203125,-21213.994140625,0.0
-32024.099609375,24287.3359375,194346.359375,12949.90625,117290.515625,299571.3125,-17730.408203125,-21373.78515625,0.0
-31709.677734375,26192.77734375,200469.90625,15961.1552734375,120678.890625,304245.59375,-17402.10546875,-20183.7578125,0.0
-31713.568359375,26665.046875,206113.140625,17195.9765625,122301.2890625,309780.3125,-17385.54296875,-19901.455078125,0.0
-31978.771484375,24995.70703125,201156.75,14608.115234375,119415.96875,306328.375,-17677.568359375,-20936.25,0.0
-32046.49609375,24112.58984375,194656.828125,12799.568359375,117160.96875,300039.8125,-17763.197265625,-21479.12890625,0.0
-31761.51171875,25636.5546875,198025.6875,15062.01171875,119622.96875,302213.0625,-17468.623046875,-20515.478515625,0.0
-31643.763671875,26852.869140625,205660.921875,17444.013671875,122509.4921875,309008.125,-17339.20703125,-19786.990234375,0.0
-31905.748046875,25466.76953125,203166.140625,15438.19140625,120346.2890625,308011.40625,-17602.599609375,-20625.919921875,0.0
-32057.025390625,24133.443359375,195803.40625,12970.4248046875,117378.96875,301258.75,-17782.509765625,-21462.767578125,0.0
-31861.55859375,25054.71484375,196031.921875,14094.94140625,118482.09375,300685.40625,-17574.369140625,-20880.796875,0.0
-31633.16796875,26812.30078125,204343.296875,17228.431640625,122169.65625,307649.1875,-17337.462890625,-19818.306640625,0.0
-31844.2578125,25962.978515625,204822.53125,16203.626953125,121205.1328125,309261.84375,-17528.16796875,-20330.876953125,0.0
-32077.41015625,24319.791015625,197505.328125,13347.7451171875,117885.03125,302965.09375,-17790.48828125,-21371.3046875,0.0
-31968.376953125,24555.69140625,194711.078125,13315.357421875,117643.09375,299737.40625,-17675.220703125,-21207.689453125,0.0
-31663.74609375,26525.638671875,202285.03125,16590.669921875,121399.53125,305782.4375,-17361.939453125,-19984.603515625,0.0
-31770.83203125,26388.443359375,205828.5625,16834.21484375,121879.7109375,309799.375,-17450.853515625,-20073.384765625,0.0
-32029.666015625,24657.345703125,199557.421875,13991.005859375,118626.2578125,304890.3125,-17748.244140625,-21166.31640625,0.0
-32027.720703125,24223.296875,194340.125,12863.337890625,117121.40625,299604.6875,-17750.322265625,-21427.765625,0.0
-31710.884765625,26069.193359375,199884.65625,15756.234375,120347.234375,303725.15625,-17419.94140625,-20268.044921875,0.0
-31692.4453125,26723.720703125,206078.75,17311.044921875,122322.8828125,309610.0,-17392.046875,-19888.84765625,0.0
-31966.90234375,25093.271484375,201655.921875,14773.205078125,119520.3046875,306739.15625,-17689.4375,-20897.626953125,0.0
-32067.955078125,24085.298828125,194870.59375,12744.1806640625,117033.0234375,300270.21875,-17811.611328125,-21535.724609375,0.0
-31805.8359375,25476.359375,197486.28125,14744.7060546875,119195.5546875,301779.75,-17533.869140625,-20660.85546875,0.0
-31643.763671875,26853.0703125,205434.953125,17367.50390625,122361.90625,308745.53125,-17372.19921875,-19832.65625,0.0
-31891.0625,25572.78515625,203567.265625,15626.482421875,120545.4453125,308305.71875,-17622.11328125,-20613.044921875,0.0
-32070.501953125,24141.22265625,196141.5625,12974.11328125,117399.6875,301603.46875,-17829.91796875,-21511.048828125,0.0
-31886.705078125,24905.451171875,195598.421875,13818.3388671875,118177.59375,300347.53125,-17634.115234375,-21014.5703125,0.0
-31621.5,26755.90625,203866.265625,17071.857421875,121967.7578125,307187.4375,-17366.029296875,-19883.818359375,0.0
-31805.298828125,26059.60546875,205049.65625,16384.67578125,121371.296875,309352.3125,-17539.703125,-20312.50390625,0.0
-32037.712890625,24375.177734375,197923.28125,13495.7353515625,118009.015625,303338.1875,-17815.3671875,-21368.01953125,0.0
-31971.39453125,24443.9765625,194507.21875,13118.6171875,117360.9921875,299598.46875,-17743.6171875,-21318.130859375,0.0
-31670.31640625,26421.166015625,201685.421875,16388.833984375,121080.0078125,305247.53125,-17431.20703125,-20094.103515625,0.0
-31740.5234375,26475.615234375,205949.0625,16962.357421875,121946.765625,309805.40625,-17483.912109375,-20057.0234375,0.0
-32005.2578125,24744.048828125,200074.75,14160.7890625,118774.7890625,305363.3125,-17772.517578125,-21131.8515625,0.0
-32033.689453125,24150.005859375,194377.265625,12813.314453125,117033.765625,299682.8125,-17796.658203125,-21498.306640625,0.0
-31736.5,25902.361328125,199218.53125,15509.1357421875,120040.0546875,303174.1875,-17478.34765625,-20401.150390625,0.0
-31686.87890625,26753.224609375,205979.171875,17318.755859375,122306.3203125,309456.78125,-17404.853515625,-19889.451171875,0.0
-32071.708984375,24070.412109375,195104.484375,12775.361328125,117060.65625,300534.0625,-17824.6875,-21556.310546875,0.0
-31821.52734375,25327.294921875,196933.484375,14553.7998046875,118943.5625,301333.71875,-17557.404296875,-20752.720703125,0.0
-31637.125,26842.140625,205117.703125,17345.845703125,122272.0546875,308396.78125,-17365.89453125,-19829.236328125,0.0
-31877.3828125,25679.87109375,203980.515625,15832.07421875,120710.5390625,308604.4375,-17602.265625,-20544.1796875,0.0
-32078.28125,24175.287109375,196538.46875,13133.16796875,117522.734375,301968.125,-17841.25,-21506.220703125,0.0
-31937.53125,24756.185546875,195195.8125,13701.595703125,117979.578125,299997.21875,-17679.4453125,-21133.99609375,0.0
-31658.783203125,26673.294921875,203353.828125,16985.69140625,121793.28125,306672.65625,-17399.2890625,-19962.474609375,0.0
-31818.84375,26146.0390625,205341.546875,16543.798828125,121484.15625,309507.21875,-17554.119140625,-20280.31640625,0.0
-32067.552734375,24436.66796875,198470.59375,13646.6767578125,118135.8203125,303839.5625,-17836.421875,-21347.76953125,0.0
-32022.087890625,24339.302734375,194420.859375,13031.9814453125,117224.203125,299542.0,-17781.234375,-21399.6015625,0.0
-31707.3984375,26288.197265625,201126.71875,16185.1201171875,120800.7265625,304751.4375,-17459.90625,-20189.724609375,0.0
-31747.900390625,26535.83203125,206064.390625,17078.83203125,122031.1875,309793.875,-17479.6875,-20036.90625,0.0
-32017.931640625,24825.587890625,200605.359375,14314.279296875,118928.7421875,305826.40625,-17769.701171875,-21088.130859375,0.0
-32069.09375,24099.177734375,194464.25,12738.5478515625,116931.7734375,299791.96875,-17833.740234375,-21552.890625,0.0
-31784.84765625,25749.541015625,198658.21875,15228.509765625,119669.03125,302709.34375,-17530.046875,-20504.75,0.0
-31696.06640625,26771.6640625,205870.8125,17303.6015625,122218.40625,309276.28125,-17426.04296875,-19884.82421875,0.0
-31868.46484375,25154.962890625,196513.859375,14281.220703125,118554.7109375,301023.71875,-17627.74609375,-20869.53125,0.0
-31887.84375,25765.232421875,204367.03125,15997.767578125,120817.421875,308879.09375,-17626.806640625,-20496.501953125,0.0
-32095.380859375,24195.671875,196973.78125,13209.9462890625,117533.7265625,302398.46875,-17876.521484375,-21483.95703125,0.0
-31967.974609375,24617.91796875,194964.671875,13472.2666015625,117633.375,299868.8125,-17733.4921875,-21201.3203125,0.0
-31679.638671875,26571.37109375,202843.390625,16809.60546875,121485.4921875,306226.46875,-17439.119140625,-20006.59765625,0.0
-31815.826171875,26229.859375,205531.3125,16743.689453125,121616.65625,309572.59375,-17554.455078125,-20212.0546875,0.0
-32066.14453125,24510.763671875,198918.859375,13858.4375,118302.8515625,304246.125,-17837.29296875,-21280.244140625,0.0
-31721.078125,26142.486328125,200473.265625,16025.1259765625,120533.0390625,304178.125,-17492.5625,-20242.228515625,0.0
-31739.98828125,26590.01171875,206059.640625,17238.7578125,122125.1328125,309676.78125,-17487.265625,-19981.787109375,0.0
-32019.943359375,24908.267578125,201052.75,14593.83203125,119165.7890625,306197.4375,-17785.52734375,-21026.037109375,0.0
-32103.091796875,24046.00390625,194617.265625,12743.7119140625,116865.921875,299984.90625,-17876.85546875,-21568.111328125,0.0
-31825.68359375,25586.396484375,198061.21875,15042.23046875,119379.890625,302223.53125,-17577.990234375,-20599.5,0.0
-31709.8125,26778.50390625,205642.15625,17398.1484375,122248.046875,308981.5,-17443.0078125,-19873.693359375,0.0
-31966.96875,25393.009765625,203064.078125,15394.001953125,120104.890625,307894.125,-17711.162109375,-20735.287109375,0.0
-32115.564453125,24068.333984375,195711.9375,12937.43359375,117168.546875,301136.90625,-17892.681640625,-21572.470703125,0.0
-31916.677734375,24990.4765625,195951.53125,14102.65234375,118342.078125,300562.4375,-17683.267578125,-20972.794921875,0.0
-31686.677734375,26740.751953125,204314.328125,17172.10546875,121955.3515625,307608.65625,-17444.55078125,-19903.935546875,0.0
-31889.185546875,25882.109375,204662.671875,16205.3701171875,121041.65625,309079.0,-17630.361328125,-20433.404296875,0.0
-32109.796875,24259.57421875,197407.703125,13311.333984375,117667.8359375,302843.125,-17882.421875,-21444.26171875,0.0
-32006.93359375,24509.421875,194715.5,13260.3046875,117401.5625,299722.96875,-17771.37890625,-21266.498046875,0.0
-31704.1796875,26484.33203125,202321.90625,16579.068359375,121210.96875,305792.15625,-17462.7890625,-20057.42578125,0.0
-31802.482421875,26339.29296875,205782.09375,16820.400390625,121694.1015625,309742.71875,-17539.099609375,-20145.669921875,0.0
-32054.87890625,24614.564453125,199484.0,13970.21875,118433.5390625,304810.78125,-17818.787109375,-21214.59765625,0.0
-32053.671875,24203.11328125,194333.078125,12866.154296875,116959.46875,299582.6875,-17807.654296875,-21476.984375,0.0
-31748.90625,26041.767578125,199902.421875,15786.7451171875,120229.4140625,303719.53125,-17490.751953125,-20326.115234375,0.0
-31737.23828125,26667.4609375,206103.6875,17281.875,122129.6953125,309646.21875,-17450.048828125,-19938.267578125,0.0
-32010.623046875,25033.59375,201660.609375,14767.7734375,119341.1328125,306741.96875,-17735.1015625,-20943.4921875,0.0
-32102.95703125,24042.8515625,194863.6875,12778.580078125,116886.984375,300240.96875,-17853.990234375,-21570.458984375,0.0
-31834.19921875,25443.904296875,197547.984375,14764.4208984375,119018.8671875,301828.96875,-17576.380859375,-20679.294921875,0.0
-31681.044921875,26795.3359375,205455.59375,17361.134765625,122143.84375,308763.75,-17417.05859375,-19864.037109375,0.0
-31926.802734375,25516.994140625,203558.40625,15603.1474609375,120292.984375,308286.9375,-17663.75390625,-20648.71875,0.0
-32100.4765625,24098.642578125,196140.484375,13002.8798828125,117203.28125,301568.9375,-17868.138671875,-21542.765625,0.0
-31921.572265625,24860.12109375,195622.359375,13903.833984375,118050.921875,300312.59375,-17674.21484375,-21053.53125,0.0
-31666.5625,26696.09375,203924.265625,17101.36328125,121789.5234375,307200.71875,-17412.498046875,-19927.404296875,0.0
-31847.34375,25988.458984375,205044.953125,16376.8310546875,121161.546875,309317.84375,-17586.5078125,-20363.53125,0.0
-32080.359375,24310.939453125,197915.640625,13495.0654296875,117811.875,303289.84375,-17856.5390625,-21412.34375,0.0
-32008.9453125,24390.064453125,194522.25,13196.1328125,117257.0625,299548.3125,-17781.50390625,-21353.19921875,0.0
-31702.435546875,26363.23046875,201728.8125,16441.337890625,120971.1171875,305223.84375,-17457.08984375,-20126.89453125,0.0
-31778.87890625,26391.126953125,205918.140625,16977.9140625,121793.28125,309728.03125,-17513.6171875,-20102.822265625,0.0
-32050.654296875,24652.115234375,199989.453125,14176.8828125,118617.8125,305232.78125,-17806.1796875,-21176.443359375,0.0
-32068.087890625,24092.80859375,194364.796875,12842.8193359375,116890.46875,299618.03125,-17825.15625,-21523.1171875,0.0
-31763.322265625,25856.16015625,199294.90625,15578.1357421875,119929.6796875,303184.21875,-17505.5703125,-20418.3828125,0.0
-31717.255859375,26668.802734375,205996.40625,17347.052734375,122143.4375,309433.90625,-17438.8515625,-19923.046875,0.0
-31984.806640625,25105.54296875,202065.28125,15009.708984375,119574.625,307041.1875,-17722.025390625,-20887.099609375,0.0
-32096.1171875,24003.759765625,195093.765625,12804.59765625,116888.0546875,300472.65625,-17863.9140625,-21579.376953125,0.0
-31854.78515625,25256.484375,197003.828125,14568.150390625,118754.5390625,301363.0,-17609.841796875,-20791.478515625,0.0
-31678.029296875,26744.841796875,205094.703125,17385.67578125,122116.6875,308336.03125,-17421.818359375,-19891.798828125,0.0
-31910.77734375,25580.830078125,203914.875,15828.251953125,120507.8984375,308522.09375,-17647.05859375,-20593.396484375,0.0
-32083.041015625,24101.525390625,196520.15625,13125.658203125,117305.0,301937.40625,-17854.794921875,-21522.783203125,0.0
-31925.931640625,24707.236328125,195286.609375,13714.0673828125,117789.609375,300074.21875,-17682.59765625,-21124.67578125,0.0
-31655.69921875,26610.26171875,203461.25,16977.578125,121589.765625,306783.8125,-17394.86328125,-19953.69140625,0.0
-31816.498046875,26082.068359375,205389.8125,16533.873046875,121284.3984375,309565.9375,-17532.52734375,-20280.71875,0.0
-32051.794921875,24386.2421875,198480.515625,13654.388671875,117950.34375,303851.5,-17809.80078125,-21343.74609375,0.0
-32002.84375,24301.216796875,194451.375,13115.80078125,117117.1796875,299556.75,-17758.63671875,-21390.013671875,0.0
-31686.142578125,26253.73046875,201190.421875,16302.935546875,120738.4296875,304780.0,-17434.76171875,-20174.705078125,0.0
-31731.26953125,26494.458984375,206058.625,17187.662109375,121957.2265625,309759.46875,-17454.609375,-20029.6640625,0.0
-32003.916015625,24778.1796875,200554.0625,14423.51171875,118834.8671875,305750.4375,-17744.689453125,-21094.76953125,0.0
-32050.85546875,24067.05859375,194518.5625,12854.7548828125,116838.765625,299826.09375,-17801.486328125,-21550.07421875,0.0
-31753.46484375,25731.83984375,198748.9375,15348.8740234375,119595.40625,302781.21875,-17492.62890625,-20496.435546875,0.0
-31669.646484375,26754.900390625,205909.703125,17456.5546875,122187.5625,309292.96875,-17394.05859375,-19887.640625,0.0
-31939.87890625,25255.412109375,202585.640625,15279.8076171875,119821.515625,307482.34375,-17665.900390625,-20803.48046875,0.0
-32077.87890625,24030.849609375,195380.828125,12917.9208984375,116968.5234375,300774.75,-17824.75390625,-21564.087890625,0.0
-31847.275390625,25153.017578125,196547.375,14416.470703125,118520.3125,301006.6875,-17581.8125,-20850.15234375,0.0
-31651.810546875,26775.017578125,204819.3125,17379.640625,122032.1953125,308047.875,-17366.56640625,-19870.943359375,0.0
-31880.6015625,25749.2734375,204388.15625,16040.548828125,120675.0,308886.875,-17590.060546875,-20494.490234375,0.0
-32085.5234375,24188.630859375,196998.59375,13232.87890625,117367.296875,302404.375,-17836.0859375,-21478.861328125,0.0
-31954.162109375,24630.189453125,195004.375,13572.916015625,117552.3671875,299859.96875,-17691.650390625,-21201.3203125,0.0
-31664.416015625,26577.337890625,202920.375,16923.53125,121427.625,306250.125,-17391.041015625,-20000.427734375,0.0
-31801.74609375,26210.27734375,205564.234375,16798.00390625,121489.8515625,309573.125,-17513.416015625,-20226.60546875,0.0
-32050.38671875,24485.484375,198908.328125,13890.556640625,118136.5546875,304197.5625,-17805.642578125,-21307.6015625,0.0
-32036.7734375,24231.27734375,194373.578125,12992.0166015625,116897.640625,299513.09375,-17788.677734375,-21458.140625,0.0
-31737.57421875,26129.07421875,200622.265625,16009.501953125,120305.3203125,304293.40625,-17487.734375,-20286.955078125,0.0
-31765.333984375,26542.40234375,206089.140625,17218.57421875,121890.2421875,309679.53125,-17492.763671875,-20047.568359375,0.0
-32042.47265625,24863.80859375,201019.09375,14626.48828125,118980.3125,306111.875,-17782.30859375,-21075.45703125,0.0
-31829.037109375,25555.21484375,198128.28125,15141.0029296875,119273.0703125,302209.65625,-17557.001953125,-20623.974609375,0.0
-31716.71875,26732.50390625,205705.984375,17465.5390625,122107.09375,308986.3125,-17423.2265625,-19908.427734375,0.0
-31984.939453125,25316.5,203041.546875,15436.11328125,119929.2109375,307827.34375,-17697.818359375,-20775.787109375,0.0
-32135.27734375,24012.87890625,195728.4375,12977.8681640625,116972.34375,301106.3125,-17879.001953125,-21599.830078125,0.0
-31932.435546875,24964.19140625,196062.109375,14239.7802734375,118238.34375,300584.84375,-17662.8828125,-20993.44921875,0.0
-31705.453125,26697.76953125,204410.546875,17323.11328125,121864.21875,307607.8125,-17423.16015625,-19928.142578125,0.0
-31904.67578125,25818.876953125,204744.015625,16222.201171875,120791.0,309110.4375,-17609.439453125,-20455.8671875,0.0
-32119.51953125,24201.638671875,197445.59375,13382.6806640625,117465.734375,302807.4375,-17860.427734375,-21486.640625,0.0
-32010.220703125,24473.4140625,194770.484375,13444.4384765625,117332.4921875,299665.71875,-17741.203125,-21303.712890625,0.0
-31718.931640625,26431.42578125,202386.890625,16703.791015625,121087.921875,305762.90625,-17439.857421875,-20089.677734375,0.0
-31834.9375,26261.77734375,205791.40625,16872.63671875,121493.5390625,309684.78125,-17537.623046875,-20206.7578125,0.0
-32092.4296875,24535.775390625,199434.984375,14024.1982421875,118247.3984375,304673.9375,-17834.142578125,-21287.083984375,0.0
-32090.552734375,24130.828125,194357.015625,12908.734375,116771.2421875,299527.78125,-17834.142578125,-21520.033203125,0.0
-31776.666015625,25965.52734375,199938.296875,15867.1435546875,120095.3046875,303669.1875,-17515.96484375,-20383.447265625,0.0
-31759.232421875,26581.96484375,206061.4375,17301.791015625,121938.7890625,309554.6875,-17471.5078125,-20004.65234375,0.0
-32031.744140625,24960.033203125,201518.78125,14801.63671875,119163.5703125,306550.0625,-17760.1796875,-21003.841796875,0.0
-32107.44921875,23995.845703125,194813.734375,12847.4462890625,116736.5078125,300132.28125,-17866.595703125,-21600.90234375,0.0
-31843.251953125,25412.1875,197612.28125,14886.998046875,118933.84375,301807.59375,-17595.357421875,-20709.537109375,0.0
-31704.783203125,26740.484375,205474.71875,17449.04296875,122024.5546875,308712.34375,-17440.595703125,-19909.970703125,0.0
-31949.736328125,25440.953125,203503.421875,15616.15625,120075.9921875,308192.9375,-17695.5390625,-20701.22265625,0.0
-32112.2109375,24041.64453125,196126.0,13019.1748046875,116966.2421875,301512.40625,-17899.251953125,-21579.84765625,0.0
-31924.388671875,24851.068359375,195702.546875,14008.9765625,117903.671875,300329.5625,-17690.30859375,-21061.7109375,0.0
-31666.29296875,26678.927734375,204010.359375,17230.578125,121671.1015625,307224.5,-17424.232421875,-19936.658203125,0.0
-31848.68359375,25950.103515625,205059.4375,16473.994140625,121008.796875,309289.625,-17598.443359375,-20384.1171875,0.0
-32082.638671875,24278.55078125,197918.734375,13592.02734375,117657.7109375,303247.125,-17867.46875,-21430.24609375,0.0
-31698.4140625,26348.546875,201825.359375,16573.236328125,120869.9296875,305276.96875,-17456.6875,-20140.23828125,0.0
-31770.765625,26380.732421875,205951.140625,17106.32421875,121694.234375,309725.0,-17513.283203125,-20124.078125,0.0
-32044.75390625,24092.271484375,194449.296875,12921.072265625,116719.078125,299668.25,-17837.16015625,-21528.75,0.0
-31738.37890625,25863.267578125,199399.109375,15735.044921875,119852.5625,303229.4375,-17522.939453125,-20433.470703125,0.0
-31683.728515625,26673.49609375,206009.28125,17543.45703125,122126.7421875,309377.0,-17446.8984375,-19946.515625,0.0
-31951.94921875,25105.208984375,202063.953125,15116.326171875,119460.2265625,306988.6875,-17722.025390625,-20898.69921875,0.0
-32063.86328125,24016.09765625,195105.15625,12953.3935546875,116825.359375,300412.5,-17858.6171875,-21579.109375,0.0
-31811.19921875,25297.65625,197134.046875,14731.630859375,118724.15625,301410.8125,-17589.658203125,-20753.189453125,0.0
-31642.689453125,26766.501953125,205243.03125,17475.462890625,122015.5,308437.53125,-17405.123046875,-19861.490234375,0.0
-31884.55859375,25592.69921875,203980.71875,15893.49609375,120372.84375,308544.75,-17642.029296875,-20588.63671875,0.0
-31909.705078125,24732.91796875,195386.25,13810.828125,117681.453125,300104.0625,-17696.275390625,-21124.609375,0.0
-31641.55078125,26634.201171875,203611.78125,17070.71875,121463.8359375,306865.15625,-17417.326171875,-19968.978515625,0.0
-31808.048828125,26082.134765625,205398.9375,16664.630859375,121199.171875,309503.4375,-17572.759765625,-20310.9609375,0.0
-32043.61328125,24399.048828125,198503.515625,13747.9306640625,117823.40625,303801.9375,-17837.763671875,-21356.8203125,0.0
-31987.421875,24318.314453125,194551.546875,13225.16796875,117009.21875,299572.4375,-17770.70703125,-21389.947265625,0.0
-31671.79296875,26254.869140625,201313.40625,16408.94921875,120633.21875,304810.1875,-17448.640625,-20179.197265625,0.0
-31724.765625,26475.28125,206131.859375,17240.099609375,121797.03125,309758.875,-17483.443359375,-20058.6328125,0.0
-31990.841796875,24768.322265625,200560.296875,14508.404296875,118723.2890625,305654.6875,-17770.70703125,-21109.587890625,0.0
-32033.0859375,24076.916015625,194563.75,12957.6171875,116752.6015625,299750.40625,-17825.693359375,-21531.365234375,0.0
-31737.640625,25753.296875,198909.796875,15453.8828125,119507.1640625,302818.375,-17517.171875,-20478.732421875,0.0
-31659.119140625,26744.306640625,206001.5,17525.822265625,122052.578125,309284.25,-17413.572265625,-19896.224609375,0.0
-31930.291015625,25239.453125,202619.171875,15296.1015625,119622.703125,307431.84375,-17691.248046875,-20819.708984375,0.0
-32065.943359375,24042.8515625,195496.15625,12939.982421875,116764.5390625,300810.8125,-17852.783203125,-21571.46484375,0.0
-31840.837890625,25168.306640625,196699.328125,14499.216796875,118384.9296875,301059.9375,-17613.529296875,-20858.466796875,0.0
-31642.421875,26766.03125,204926.203125,17447.703125,121893.2578125,308062.6875,-17405.994140625,-19891.53125,0.0
-31872.755859375,25720.9765625,204403.171875,16108.744140625,120537.8671875,308817.625,-17637.46875,-20532.712890625,0.0
-32076.203125,24175.419921875,196984.375,13341.7099609375,117279.9921875,302283.6875,-17877.861328125,-21505.146484375,0.0
-31939.4765625,24639.509765625,195130.234375,13669.6103515625,117448.6328125,299884.59375,-17735.5703125,-21201.587890625,0.0
-31657.845703125,26575.125,203089.09375,16969.46484375,121273.328125,306335.84375,-17447.904296875,-20022.623046875,0.0
-31793.36328125,26193.3125,205648.984375,16804.978515625,121291.8359375,309607.3125,-17567.330078125,-20255.505859375,0.0
-32037.98046875,24481.728515625,198978.53125,13936.0205078125,117973.546875,304206.625,-17846.009765625,-21319.337890625,0.0
-31998.216796875,24256.556640625,194461.03125,13158.1123046875,116849.5,299512.5,-17802.826171875,-21455.794921875,0.0
-31678.966796875,26165.41796875,200758.375,16201.1455078125,120279.1015625,304347.96875,-17467.685546875,-20258.388671875,0.0
-31700.759765625,26575.39453125,206221.3125,17348.05859375,121794.015625,309759.125,-17459.236328125,-20013.369140625,0.0
-31975.75390625,24897.806640625,201121.890625,14713.9951171875,118837.75,306171.0625,-17756.55859375,-21050.78125,0.0
-32038.3828125,24074.904296875,194768.265625,12930.6611328125,116606.7578125,300017.40625,-17837.62890625,-21557.853515625,0.0
-31758.763671875,25629.580078125,198371.078125,15243.7314453125,119136.6171875,302406.25,-17538.8984375,-20582.66796875,0.0
-31913.125,25373.228515625,203111.34375,15568.8818359375,119834.125,307834.78125,-17685.615234375,-20758.353515625,0.0
-32053.806640625,24081.9453125,195822.921875,13102.9267578125,116874.7734375,301136.15625,-17855.734375,-21556.244140625,0.0
-31842.984375,25050.087890625,196281.90625,14309.517578125,118083.71875,300759.84375,-17630.2265625,-20928.404296875,0.0
-31622.841796875,26758.65625,204571.203125,17399.220703125,121733.328125,307720.3125,-17395.265625,-19892.06640625,0.0
-31828.166015625,25856.16015625,204774.71875,16343.1015625,120725.15625,309071.5625,-17585.8359375,-20437.830078125,0.0
-32040.126953125,24240.330078125,197495.546875,13475.3505859375,117364.4140625,302789.46875,-17835.482421875,-21441.04296875,0.0
-31932.435546875,24530.0078125,194943.21875,13533.48828125,117216.890625,299770.4375,-17712.03515625,-21240.81640625,0.0
-31637.4609375,26483.328125,202599.25,16817.583984375,120993.109375,305903.125,-17408.005859375,-20038.248046875,0.0
-31734.623046875,26290.87890625,205885.421875,16988.306640625,121390.8125,309721.96875,-17496.25,-20150.630859375,0.0
-31987.15234375,24575.60546875,199547.5,14129.8095703125,118114.9609375,304741.71875,-17777.4140625,-21211.9140625,0.0
-31990.505859375,24192.251953125,194493.078125,13085.2236328125,116701.3046875,299599.3125,-17776.67578125,-21454.587890625,0.0
-31684.197265625,26032.11328125,200132.484375,16065.6943359375,120046.7578125,303789.28125,-17456.888671875,-20311.69921875,0.0
-31671.390625,26630.849609375,206202.265625,17449.3125,121829.8203125,309634.6875,-17423.09375,-19943.23046875,0.0
-31942.494140625,25001.943359375,201651.421875,14898.6650390625,118987.7578125,306629.1875,-17717.80078125,-20949.19140625,0.0
-32031.275390625,24027.966796875,194947.578125,12952.3203125,116569.7421875,300205.09375,-17829.11328125,-21554.8359375,0.0
-31761.646484375,25447.591796875,197768.921875,15030.697265625,118812.875,301887.59375,-17546.2734375,-20655.2890625,0.0
-31618.416015625,26764.623046875,205621.828125,17544.462890625,121839.75,308801.90625,-17398.08203125,-19859.6796875,0.0
-31869.068359375,25459.728515625,203548.28125,15762.26953125,119946.4453125,308159.65625,-17653.763671875,-20666.353515625,0.0
-32031.744140625,24073.49609375,196127.75,13206.0576171875,116893.890625,301413.5,-17845.00390625,-21532.439453125,0.0
-31843.3203125,24886.138671875,195822.25,14149.390625,117788.1328125,300362.46875,-17644.041015625,-21009.005859375,0.0
-31595.349609375,26692.337890625,204120.859375,17305.34375,121480.46875,307273.40625,-17395.66796875,-19919.224609375,0.0
-31782.3671875,25950.775390625,205034.21875,16559.287109375,120822.515625,309205.46875,-17570.546875,-20375.267578125,0.0
-32008.41015625,24298.466796875,197893.984375,13675.1083984375,117460.90625,303165.78125,-17834.544921875,-21397.859375,0.0
-31921.908203125,24415.544921875,194641.40625,13445.51171875,116985.3515625,299552.53125,-17740.0625,-21316.119140625,0.0
-31621.76953125,26378.453125,201935.0625,16675.16015625,120682.640625,305319.46875,-17427.921875,-20109.59375,0.0
-31713.76953125,26377.58203125,205960.1875,17156.68359375,121445.6640625,309683.84375,-17499.537109375,-20120.255859375,0.0
-31976.55859375,24656.2734375,199953.65625,14345.7275390625,118245.1171875,305092.4375,-17790.7578125,-21185.5625,0.0
-31996.67578125,24110.2421875,194408.453125,13070.4716796875,116575.5078125,299544.46875,-17810.60546875,-21520.97265625,0.0
-31689.091796875,25878.48828125,199463.8125,15816.78515625,119642.4140625,303224.9375,-17498.060546875,-20410.3359375,0.0
-31646.310546875,26673.16015625,206060.84375,17548.6875,121821.640625,309392.40625,-17438.78515625,-19930.623046875,0.0
-31924.859375,25093.80859375,202084.46875,15114.44921875,119131.859375,306981.84375,-17733.828125,-20897.224609375,0.0
-32034.025390625,24024.412109375,195160.015625,13017.2294921875,116549.828125,300422.4375,-17868.33984375,-21582.328125,0.0
-31785.31640625,25305.099609375,197216.0625,14859.7734375,118507.703125,301422.34375,-17601.59375,-20768.2109375,0.0
-31612.58203125,26754.833984375,205265.96875,17602.599609375,121792.875,308384.03125,-17416.388671875,-19884.490234375,0.0
-31852.841796875,25573.65625,203983.734375,15949.353515625,120064.328125,308492.65625,-17649.001953125,-20596.548828125,0.0
-32037.109375,24102.263671875,196537.453125,13329.8408203125,116937.3359375,301809.46875,-17864.65234375,-21531.03125,0.0
-31882.14453125,24740.6953125,195438.09375,13996.03515625,117492.6875,300046.25,-17679.244140625,-21105.833984375,0.0
-31614.326171875,26626.892578125,203657.515625,17199.732421875,121221.4296875,306817.5,-17392.91796875,-19947.25390625,0.0
-31782.3671875,26051.826171875,205400.34375,16697.689453125,120856.3828125,309446.71875,-17543.79296875,-20298.623046875,0.0
-32024.63671875,24358.34765625,198408.234375,13844.0205078125,117548.2109375,303611.03125,-17826.498046875,-21359.837890625,0.0
-31968.17578125,24309.26171875,194534.984375,13358.33984375,116774.59375,299444.75,-17761.521484375,-21382.1015625,0.0
-31659.990234375,26252.65625,201359.328125,16528.77734375,120386.390625,304755.53125,-17443.208984375,-20176.849609375,0.0
-31715.4453125,26451.341796875,206073.921875,17370.521484375,121557.78125,309618.25,-17489.6796875,-20066.41015625,0.0
-31981.587890625,24742.103515625,200503.96875,14587.998046875,118403.4375,305534.71875,-17787.470703125,-21116.96484375,0.0
-32028.861328125,24064.64453125,194579.375,13019.7109375,116397.0078125,299720.15625,-17843.328125,-21547.59375,0.0
-31657.7109375,26703.939453125,205990.640625,17594.21875,121714.6875,309224.6875,-17435.833984375,-19913.859375,0.0
-32053.134765625,24015.560546875,195369.15625,13132.296875,116577.1875,300602.28125,-17862.505859375,-21582.662109375,0.0
-31816.630859375,25153.48828125,196667.8125,14665.9169921875,118180.546875,300953.65625,-17609.439453125,-20851.291015625,0.0
-31620.6953125,26729.755859375,204926.203125,17533.734375,121588.828125,308021.125,-17403.646484375,-19885.830078125,0.0
-31851.298828125,25680.005859375,204341.34375,16181.3642578125,120210.1015625,308721.78125,-17624.59375,-20530.56640625,0.0
-32038.71875,24153.560546875,196959.4375,13454.6982421875,116978.7109375,302213.9375,-17845.072265625,-21489.322265625,0.0
-31896.6953125,24626.43359375,195149.078125,13831.8837890625,117196.171875,299839.3125,-17690.443359375,-21184.0859375,0.0
-31606.681640625,26550.650390625,203074.40625,17176.798828125,121058.0859375,306235.59375,-17399.01953125,-20010.3515625,0.0
-31961.26953125,24243.68359375,194461.5,13277.068359375,116584.09375,299427.59375,-17783.984375,-21435.4765625,0.0
-31658.716796875,26147.044921875,200785.875,16351.2822265625,120084.5078125,304262.5625,-17467.55078125,-20247.2578125,0.0
-31687.884765625,26519.73828125,206129.4375,17461.046875,121586.078125,309564.40625,-17465.673828125,-20024.43359375,0.0
-31966.09765625,24833.5,201011.65625,14777.49609375,118599.03125,305971.0625,-17756.4921875,-21057.419921875,0.0
-32036.908203125,24017.908203125,194700.484375,13024.8740234375,116417.390625,299855.40625,-17836.220703125,-21564.021484375,0.0
-31768.8203125,25583.37890625,198377.59375,15358.462890625,118978.03125,302315.40625,-17544.396484375,-20582.19921875,0.0
-31660.59375,26714.6015625,205826.078125,17642.029296875,121770.0078125,308990.875,-17418.064453125,-19890.591796875,0.0
-31916.0078125,25303.826171875,203039.9375,15587.3896484375,119548.9375,307708.4375,-17677.568359375,-20755.3359375,0.0
-32073.7890625,24008.921875,195754.859375,13147.853515625,116598.640625,300997.375,-17857.208984375,-21580.25,0.0
-31870.34375,24986.05078125,196244.625,14414.7275390625,117861.15625,300630.84375,-17633.244140625,-20956.568359375,0.0
-31643.494140625,26696.025390625,204534.265625,17485.25390625,121463.703125,307611.34375,-17409.681640625,-19923.716796875,0.0
-31848.953125,25797.083984375,204664.8125,16413.173828125,120408.65625,308908.9375,-17612.322265625,-20480.275390625,0.0
-32071.642578125,24191.044921875,197362.90625,13543.009765625,117036.6484375,302602.40625,-17878.0625,-21489.658203125,0.0
-31964.82421875,24494.8046875,194872.546875,13589.2109375,116874.9765625,299657.59375,-17758.302734375,-21296.5390625,0.0
-31667.90234375,26459.857421875,202593.546875,16900.599609375,120686.0625,305840.75,-17448.708984375,-20091.48828125,0.0
-31781.29296875,26242.80078125,205830.640625,17020.29296875,121038.3046875,309625.09375,-17543.7265625,-20223.251953125,0.0
-32030.3359375,24515.994140625,199428.46875,14152.072265625,117757.0234375,304568.46875,-17827.16796875,-21284.9375,0.0
-32023.966796875,24149.8046875,194475.3125,13091.2587890625,116332.96875,299523.6875,-17823.546875,-21503.404296875,0.0
-31707.935546875,26008.0390625,200199.671875,16090.974609375,119705.78125,303781.5625,-17505.236328125,-20352.1328125,0.0
-31703.107421875,26574.455078125,206155.796875,17493.30078125,121520.6953125,309510.28125,-17477.609375,-20004.517578125,0.0
-31984.873046875,24938.912109375,201549.765625,14927.6328125,118658.046875,306444.25,-17770.103515625,-21007.462890625,0.0
-32070.703125,24000.138671875,194901.984375,12999.2587890625,116257.3359375,300069.71875,-17874.30859375,-21597.548828125,0.0
-31654.693359375,26735.791015625,205572.8125,17634.048828125,121584.734375,308654.40625,-17436.03515625,-19901.25390625,0.0
-31911.11328125,25425.263671875,203470.765625,15774.138671875,119601.78125,308014.5,-17688.833984375,-20705.24609375,0.0
-32078.818359375,24043.5234375,196104.890625,13209.0751953125,116527.8984375,301332.25,-17889.865234375,-21574.416015625,0.0
-31899.84765625,24858.04296875,195842.703125,14221.0048828125,117501.7421875,300304.21875,-17695.60546875,-21052.390625,0.0
-31660.326171875,26659.548828125,204142.125,17377.62890625,121202.71875,307210.625,-17449.84765625,-19958.451171875,0.0
-31844.59375,25913.55859375,205057.703125,16551.912109375,120447.2109375,309175.75,-17622.984375,-20417.376953125,0.0
-32066.61328125,24266.01171875,197898.140625,13692.4091796875,117105.1796875,303098.53125,-17879.068359375,-21440.841796875,0.0
-31987.689453125,24389.125,194703.5625,13492.919921875,116665.296875,299527.78125,-17790.287109375,-21355.279296875,0.0
-31768.015625,26319.64453125,205929.546875,17217.30078125,121158.734375,309566.9375,-17535.611328125,-20178.326171875,0.0
-32022.2890625,24603.701171875,199908.25,14397.896484375,117953.8984375,304963.21875,-17812.21484375,-21227.470703125,0.0
-32047.234375,24086.03515625,194436.421875,13128.67578125,116291.0625,299484.0625,-17832.0625,-21553.29296875,0.0
-31747.900390625,25864.072265625,199592.625,15883.2373046875,119357.1640625,303259.65625,-17521.93359375,-20438.8359375,0.0
-31703.84375,26623.673828125,206104.703125,17575.64453125,121488.9140625,309375.09375,-17461.78515625,-19980.109375,0.0
-31967.70703125,25048.880859375,202019.359375,15168.96484375,118834.8671875,306840.34375,-17743.953125,-20949.52734375,0.0
-32069.36328125,24002.552734375,195120.84375,13092.0634765625,116276.0390625,300299.375,-17866.26171875,-21607.47265625,0.0
-31820.185546875,25307.24609375,197276.140625,14971.017578125,118277.640625,301395.1875,-17591.1328125,-20783.365234375,0.0
-31649.6640625,26739.880859375,205323.375,17649.806640625,121488.6484375,308389.875,-17403.513671875,-19909.099609375,0.0
-31887.44140625,25550.791015625,203916.140625,16025.39453125,119797.7109375,308370.40625,-17639.212890625,-20637.453125,0.0
-32068.15625,24093.814453125,196502.59375,13354.9873046875,116620.3046875,301735.09375,-17852.24609375,-21550.341796875,0.0
-31899.98046875,24759.671875,195476.640625,14102.451171875,117280.796875,300020.03125,-17667.107421875,-21127.828125,0.0
-31634.7109375,26617.169921875,203668.109375,17335.65234375,121060.09375,306749.84375,-17394.193359375,-19985.138671875,0.0
-31808.71875,26021.31640625,205306.53125,16798.943359375,120658.234375,309292.625,-17555.52734375,-20352.736328125,0.0
-32039.58984375,24350.904296875,198363.96875,13916.91015625,117323.9765625,303520.84375,-17826.765625,-21388.068359375,0.0
-31974.61328125,24317.779296875,194522.375,13422.8466796875,116554.71875,299393.9375,-17759.509765625,-21401.748046875,0.0
-31665.623046875,26258.490234375,201405.203125,16593.75390625,120167.859375,304754.46875,-17444.013671875,-20198.978515625,0.0
-31981.990234375,24728.291015625,200440.078125,14617.63671875,118147.484375,305435.75,-17770.70703125,-21147.609375,0.0
-32023.630859375,24065.44921875,194538.078125,13108.4248046875,116221.65625,299625.15625,-17826.36328125,-21556.244140625,0.0
-31736.970703125,25749.138671875,199000.265625,15673.7568359375,119065.46875,302787.875,-17516.970703125,-20509.712890625,0.0
-31656.369140625,26700.384765625,205994.859375,17656.9140625,121515.0,309195.1875,-17419.13671875,-19937.529296875,0.0
-31917.548828125,25208.673828125,202528.84375,15421.8974609375,119069.2265625,307258.96875,-17692.990234375,-20848.54296875,0.0
-32044.150390625,24037.689453125,195424.0,13151.6083984375,116308.0234375,300618.5,-17851.509765625,-21589.501953125,0.0
-31819.984375,25190.771484375,196800.25,14740.0126953125,117961.5390625,301031.90625,-17610.646484375,-20854.912109375,0.0
-31627.8046875,26766.03125,205030.671875,17612.45703125,121368.6875,308075.03125,-17405.79296875,-19896.626953125,0.0
-31850.158203125,25700.32421875,204353.421875,16222.0673828125,119947.1796875,308700.875,-17623.38671875,-20544.1796875,0.0
-32047.63671875,24171.46484375,196947.828125,13519.0712890625,116748.78125,302150.25,-17856.94140625,-21513.595703125,0.0
-31907.357421875,24645.4765625,195192.125,13921.2685546875,117011.3671875,299817.78125,-17705.328125,-21195.822265625,0.0
-31623.982421875,26567.884765625,203210.59375,17192.826171875,120808.4375,306334.8125,-17407.73828125,-20013.705078125,0.0
-31772.375,26147.783203125,205588.90625,16976.7734375,120774.7109375,309450.46875,-17534.0703125,-20270.392578125,0.0
-32024.63671875,24435.4609375,198840.265625,14093.6669921875,117456.8828125,303952.03125,-17826.83203125,-21339.05078125,0.0
-31986.482421875,24244.21875,194480.875,13322.599609375,116356.5703125,299406.8125,-17797.060546875,-21451.63671875,0.0
-31675.8828125,26153.080078125,200869.359375,16405.330078125,119842.3046875,304305.59375,-17482.1015625,-20268.044921875,0.0
-31700.828125,26506.193359375,206169.203125,17456.95703125,121249.125,309596.71875,-17494.306640625,-20055.94921875,0.0
-31969.71875,24823.7109375,200983.21875,14789.8349609375,118258.1953125,305921.09375,-17793.841796875,-21088.3984375,0.0
-32037.244140625,24030.513671875,194704.84375,13071.8125,116101.0234375,299814.71875,-17879.337890625,-21595.068359375,0.0
-31752.59375,25594.107421875,198404.34375,15474.53515625,118733.8828125,302269.125,-17575.30859375,-20610.09375,0.0
-31649.59765625,26701.123046875,205838.015625,17710.15625,121464.0390625,308948.5,-17446.96484375,-19940.81640625,0.0
-31913.19140625,25287.59765625,203017.0,15631.310546875,119221.109375,307634.5,-17711.833984375,-20801.46875,0.0
-32059.037109375,24024.814453125,195758.875,13230.0634765625,116321.9765625,300929.5,-17880.677734375,-21601.640625,0.0
-31852.640625,25018.23828125,196320.0625,14549.375,117661.5390625,300614.28125,-17648.3984375,-20979.3671875,0.0
-31634.576171875,26695.623046875,204617.40625,17559.283203125,121217.0078125,307621.15625,-17422.01953125,-19951.34375,0.0
-31853.4453125,25769.79296875,204692.984375,16408.345703125,120092.8203125,308887.8125,-17636.126953125,-20517.021484375,0.0
-32068.2890625,24185.61328125,197363.171875,13590.2841796875,116787.40625,302522.46875,-17879.671875,-21522.044921875,0.0
-31942.6953125,24512.373046875,194955.890625,13690.2626953125,116692.1171875,299643.1875,-17743.349609375,-21300.025390625,0.0
-31657.845703125,26465.556640625,202687.828125,16986.228515625,120490.9296875,305843.71875,-17445.01953125,-20096.31640625,0.0
-31789.072265625,26227.9140625,205800.9375,17085.068359375,120824.6640625,309521.625,-17541.916015625,-20242.228515625,0.0
-32038.65234375,24511.232421875,199372.484375,14232.2705078125,117563.4375,304426.09375,-17824.75390625,-21307.53515625,0.0
-32027.654296875,24158.1875,194453.046875,13243.33984375,116218.375,299393.8125,-17817.04296875,-21528.482421875,0.0
-31712.5625,26002.607421875,200241.125,16170.2333984375,119512.2578125,303746.03125,-17489.544921875,-20372.181640625,0.0
-31712.96484375,26551.65625,206156.46875,17519.787109375,121258.375,309467.03125,-17472.646484375,-20040.794921875,0.0
-31987.95703125,24921.275390625,201495.984375,14966.79296875,118415.0390625,306342.9375,-17768.091796875,-21041.392578125,0.0
-31801.544921875,25454.767578125,197882.984375,15215.9033203125,118385.1953125,301831.1875,-17580.673828125,-20708.396484375,0.0
-31656.705078125,26737.33203125,205624.25,17698.287109375,121403.015625,308652.375,-17421.21484375,-19933.775390625,0.0
-31904.33984375,25417.349609375,203458.890625,15765.4208984375,119342.7421875,307966.46875,-17673.947265625,-20736.828125,0.0
-32062.25390625,24058.677734375,196102.34375,13239.3837890625,116308.296875,301271.625,-17869.009765625,-21594.3984375,0.0
-31864.240234375,24905.181640625,195925.90625,14297.380859375,117337.125,300306.96875,-17666.638671875,-21057.62109375,0.0
-31619.48828125,26684.42578125,204226.140625,17421.55078125,121011.75,307231.5,-17409.34765625,-19963.078125,0.0
-31809.724609375,25914.765625,205039.59375,16576.587890625,120236.9296875,309108.84375,-17580.673828125,-20432.46484375,0.0
-32035.96875,24278.55078125,197863.9375,13720.1025390625,116905.625,303004.65625,-17838.43359375,-21445.06640625,0.0
-31945.779296875,24440.154296875,194800.65625,13544.41796875,116490.078125,299558.5625,-17745.427734375,-21335.228515625,0.0
-31637.794921875,26393.138671875,202152.796875,16791.5,120218.6171875,305379.03125,-17422.220703125,-20133.935546875,0.0
-31726.173828125,26335.001953125,206016.390625,17167.2109375,120861.0078125,309648.15625,-17486.99609375,-20161.896484375,0.0
-31990.3046875,24633.408203125,199940.375,14406.546875,117713.3671875,304960.3125,-17764.001953125,-21226.46484375,0.0
-32001.033203125,24133.376953125,194516.34375,13215.646484375,116140.3203125,299493.3125,-17781.837890625,-21532.169921875,0.0
-31699.083984375,25898.60546875,199714.0625,15949.0185546875,119193.28125,303309.15625,-17475.732421875,-20430.318359375,0.0
-31670.98828125,26627.5625,206132.046875,17619.162109375,121304.515625,309334.53125,-17428.7265625,-19996.13671875,0.0
-31794.5703125,25320.455078125,197351.640625,15011.2509765625,118103.296875,301388.6875,-17577.119140625,-20800.462890625,0.0
-31622.439453125,26750.072265625,205373.59375,17716.2578125,121345.484375,308350.3125,-17391.376953125,-19928.142578125,0.0
-31869.26953125,25542.744140625,203864.515625,16075.3505859375,119640.1328125,308235.15625,-17627.8125,-20662.53125,0.0
-32049.984375,24089.791015625,196462.484375,13397.3662109375,116462.453125,301605.5,-17852.716796875,-21568.71484375,0.0
-31886.63671875,24762.890625,195556.578125,14130.279296875,117105.78125,300018.34375,-17679.04296875,-21130.173828125,0.0
-31629.48046875,26614.15234375,203774.390625,17297.6328125,120803.0703125,306792.0,-17403.3125,-19991.30859375,0.0
-31799.197265625,26011.794921875,205379.359375,16731.8203125,120355.4140625,309314.5625,-17553.8515625,-20365.611328125,0.0
-32036.23828125,24339.572265625,198376.921875,13897.0615234375,117055.2890625,303457.8125,-17826.02734375,-21415.896484375,0.0
-31978.904296875,24315.498046875,194623.359375,13429.015625,116300.1171875,299414.71875,-17763.533203125,-21413.482421875,0.0
-31670.048828125,26258.892578125,201553.53125,16622.38671875,119939.3359375,304819.5,-17447.43359375,-20209.169921875,0.0
-31719.87109375,26416.47265625,206121.328125,17346.91796875,120976.6796875,309587.125,-17482.1015625,-20122.0,2.0
-32023.162109375,24068.66796875,194582.390625,13195.462890625,116050.3984375,299547.84375,-17826.69921875,-21581.255859375,0.0
-31650.87109375,26681.408203125,206047.90625,17717.263671875,121316.1796875,309126.46875,-17435.095703125,-19951.880859375,0.0
-32043.61328125,24014.21875,195430.640625,13153.6875,116034.4375,300526.4375,-17858.751953125,-21607.80859375,0.0
-31814.619140625,25191.978515625,196898.28125,14773.5400390625,117730.265625,301017.21875,-17608.03125,-20863.96484375,0.0
-31626.59765625,26738.337890625,205113.28125,17621.978515625,121127.3515625,308051.375,-17402.91015625,-19920.23046875,0.0
-31852.70703125,25652.04296875,204293.46875,16266.6591796875,119757.953125,308516.40625,-17627.208984375,-20588.033203125,0.0
-32048.306640625,24121.171875,196859.53125,13530.939453125,116535.7421875,301940.625,-17858.416015625,-21537.9375,0.0
-31910.509765625,24632.669921875,195258.84375,13921.603515625,116786.1328125,299769.125,-17701.3046875,-21202.2578125,0.0
-31638.064453125,26546.560546875,203312.375,17165.9375,120553.8984375,306333.75,-17417.39453125,-20035.833984375,0.0
-31782.8359375,26106.87890625,205605.0,16910.1875,120477.1171875,309378.25,-17553.314453125,-20304.12109375,0.0
-32029.8671875,24416.6171875,198879.828125,14010.7197265625,117136.2890625,303911.65625,-17826.498046875,-21355.48046875,0.0
-31990.23828125,24239.861328125,194544.515625,13314.8212890625,116119.9375,299367.84375,-17789.416015625,-21459.68359375,0.0
-31681.515625,26150.80078125,200978.71875,16393.05859375,119611.5,304312.25,-17476.537109375,-20281.322265625,0.0
-31707.935546875,26492.177734375,206204.546875,17409.75,120984.4609375,309550.46875,-17482.83984375,-20073.451171875,0.0
-32036.439453125,24035.275390625,194689.546875,13091.2587890625,115904.21875,299694.875,-17856.806640625,-21589.771484375,0.0
-31748.033203125,25607.451171875,198497.078125,15502.6982421875,118554.5078125,302252.96875,-17556.064453125,-20597.287109375,0.0
-31644.5,26703.46875,205890.65625,17706.46875,121259.3828125,308911.625,-17432.4140625,-19934.244140625,0.0
-31897.90234375,25285.921875,202961.75,15655.8525390625,119051.9921875,307483.34375,-17692.455078125,-20802.609375,0.0
-32041.064453125,24016.833984375,195711.265625,13241.1943359375,116138.3125,300794.84375,-17870.619140625,-21591.916015625,0.0
-31823.806640625,25033.458984375,196368.875,14600.8056640625,117520.5859375,300563.71875,-17644.978515625,-20950.66796875,0.0
-31607.3515625,26706.6875,204685.875,17599.91796875,121067.2734375,307597.59375,-17420.478515625,-19931.763671875,0.0
-31814.083984375,25774.017578125,204671.859375,16457.431640625,119945.3046875,308789.4375,-17613.6640625,-20487.78515625,0.0
-32031.275390625,24198.755859375,197348.296875,13651.7060546875,116649.46875,302425.96875,-17852.447265625,-21472.625,0.0
-31918.95703125,24545.966796875,194991.828125,13812.1689453125,116625.328125,299570.15625,-17725.51171875,-21252.953125,0.0
-31620.6953125,26485.205078125,202760.515625,17047.115234375,120359.5703125,305827.46875,-17422.220703125,-20061.314453125,0.0
-31739.98828125,26243.068359375,205819.90625,17093.986328125,120626.515625,309471.53125,-17522.201171875,-20228.818359375,0.0
-31998.88671875,24526.857421875,199333.265625,14259.2939453125,117378.2265625,304295.75,-17812.953125,-21296.337890625,0.0
-31988.359375,24187.892578125,194443.796875,13282.701171875,116053.75,299290.34375,-17806.314453125,-21493.412109375,0.0
-31670.5859375,26054.84375,200350.546875,16239.8369140625,119388.4765625,303745.40625,-17479.28515625,-20329.06640625,0.0
-31667.90234375,26585.921875,206214.125,17539.3671875,121082.15625,309442.625,-17457.42578125,-20013.705078125,0.0
-31940.482421875,24938.375,201454.609375,14983.892578125,118231.9765625,306217.9375,-17747.037109375,-21016.8515625,0.0
-32024.369140625,24030.58203125,194877.84375,13129.4130859375,115925.9453125,299894.96875,-17841.98828125,-21582.328125,0.0
-31746.55859375,25499.359375,197953.0,15289.798828125,118279.921875,301798.125,-17550.966796875,-20654.08203125,0.0
-31611.107421875,26759.59375,205701.765625,17707.005859375,121212.2421875,308657.28125,-17396.205078125,-19884.69140625,0.0
-31866.38671875,25424.66015625,203451.796875,15838.712890625,119213.0625,307872.125,-17654.298828125,-20702.4296875,0.0
-32020.27734375,24074.771484375,196085.234375,13357.53515625,116230.640625,301143.46875,-17840.177734375,-21547.525390625,0.0
-31825.1484375,24930.060546875,195986.859375,14423.84765625,117270.3359375,300251.25,-17637.669921875,-20999.08203125,0.0
-31576.103515625,26705.548828125,204296.078125,17556.130859375,120955.421875,307185.875,-17391.7109375,-19918.62109375,0.0
-31760.908203125,25918.38671875,205012.5625,16689.576171875,120164.7109375,308976.25,-17564.513671875,-20395.78515625,0.0
-31983.12890625,24284.318359375,197820.359375,13811.365234375,116810.2734375,302841.78125,-17825.22265625,-21423.072265625,0.0
-31889.7890625,24455.845703125,194796.640625,13665.318359375,116428.9296875,299422.90625,-17728.126953125,-21303.37890625,0.0
-31579.0546875,26408.091796875,202223.734375,16907.908203125,120148.1484375,305317.65625,-17413.50390625,-20095.04296875,0.0
-31664.21484375,26349.3515625,206063.1875,17260.283203125,120767.53125,309570.90625,-17482.7734375,-20125.6875,0.0
-31918.01953125,24650.23828125,199946.8125,14435.1123046875,117546.0703125,304858.59375,-17772.384765625,-21178.185546875,0.0
-31925.462890625,24177.767578125,194538.40625,13295.5087890625,116039.203125,299400.3125,-17785.326171875,-21478.7265625,0.0
-31616.001953125,25956.943359375,199778.234375,16100.7646484375,119198.7734375,303236.40625,-17464.734375,-20362.19140625,0.0
-31577.4453125,26676.84765625,206221.578125,17673.611328125,121208.7578125,309325.75,-17400.09375,-19924.857421875,0.0
-31852.640625,25096.021484375,202049.203125,15222.876953125,118501.875,306709.0,-17686.419921875,-20898.365234375,0.0
-31951.546875,24069.943359375,195195.21875,13176.486328125,115980.4609375,300194.1875,-17813.48828125,-21545.783203125,0.0
-31695.6640625,25395.69140625,197527.796875,15061.0732421875,117992.3828125,301457.03125,-17546.943359375,-20706.787109375,0.0
-31532.1171875,26809.6171875,205546.796875,17698.890625,121153.8359375,308446.0625,-17369.91796875,-19862.697265625,0.0
-31775.52734375,25588.408203125,203961.8125,16058.1171875,119429.578125,308248.375,-17609.57421875,-20603.322265625,0.0
-31961.671875,24136.05859375,196513.78125,13455.234375,116327.140625,301536.40625,-17821.87109375,-21510.712890625,0.0
-31783.23828125,24837.12109375,195699.796875,14203.16796875,116997.21875,300038.28125,-17636.59765625,-21060.771484375,0.0
-31521.990234375,26688.515625,203927.078125,17367.37109375,120697.796875,306837.28125,-17371.595703125,-19941.21875,0.0
-31692.51171875,26066.376953125,205348.375,16822.078125,120278.90625,309172.25,-17535.076171875,-20336.91015625,0.0
-31929.8203125,24398.111328125,198325.625,13934.27734375,116940.5546875,303295.75,-17810.068359375,-21373.3828125,0.0
-31861.357421875,24404.279296875,194694.046875,13483.666015625,116219.984375,299379.375,-17735.03515625,-21343.8125,0.0
-31546.3984375,26353.91015625,201679.71875,16695.0078125,119888.1015625,304848.34375,-17411.291015625,-20141.580078125,0.0
-31614.662109375,26479.974609375,206181.265625,17370.857421875,120875.8984375,309580.5,-17452.1953125,-20068.154296875,0.0
-31881.80859375,24767.98828125,200428.9375,14663.9716796875,117807.578125,305267.4375,-17741.873046875,-21121.5234375,0.0
-31918.353515625,24130.0234375,194619.34375,13215.04296875,115945.59375,299518.78125,-17789.482421875,-21504.41015625,0.0
-31622.57421875,25814.451171875,199231.875,15783.458984375,118783.3671875,302823.9375,-17478.01171875,-20436.82421875,0.0
-31549.88671875,26720.568359375,206149.15625,17686.75390625,121138.484375,309201.21875,-17389.833984375,-19892.736328125,0.0
-31818.77734375,25204.44921875,202534.203125,15416.2646484375,118632.8984375,307120.3125,-17676.62890625,-20826.078125,0.0
-31952.552734375,24053.6484375,195448.28125,13181.984375,115895.1015625,300476.875,-17833.873046875,-21556.17578125,0.0
-31714.373046875,25242.26953125,196981.4375,14815.4501953125,117589.1796875,301033.625,-17584.830078125,-20810.3203125,0.0
-31518.83984375,26795.267578125,205146.203125,17697.6171875,121009.46875,308014.75,-17386.548828125,-19876.509765625,0.0
-31953.826171875,24187.154296875,196927.046875,13512.5,116287.640625,301974.5,-17828.84375,-21482.34765625,0.0
-31811.6015625,24703.01171875,195379.078125,13967.201171875,116608.96875,299842.59375,-17677.166015625,-21140.3671875,0.0
-31538.955078125,26602.08203125,203424.5,17237.685546875,120415.2890625,306388.1875,-17393.052734375,-19983.1953125,0.0
-31692.580078125,26143.4921875,205652.9375,16932.986328125,120283.9296875,309389.3125,-17526.828125,-20256.98046875,0.0
-31931.83203125,24461.478515625,198866.078125,14098.62890625,117012.640625,303821.65625,-17802.08984375,-21306.529296875,0.0
-31894.28125,24298.400390625,194574.6875,13415.6044921875,116028.671875,299307.625,-17769.8359375,-21407.314453125,0.0
-31587.16796875,26201.025390625,201051.015625,16481.83984375,119517.890625,304281.59375,-17464.734375,-20226.94140625,0.0
-31620.763671875,26508.337890625,206216.28125,17455.01171875,120842.1015625,309478.03125,-17484.716796875,-20040.9296875,0.0
-31890.728515625,24828.404296875,200950.890625,14781.1845703125,117833.734375,305705.84375,-17772.919921875,-21078.20703125,0.0
-31952.015625,24059.81640625,194733.53125,13124.3173828125,115736.4453125,299639.5625,-17844.46875,-21565.697265625,0.0
-31663.07421875,25659.955078125,198673.09375,15501.08984375,118339.265625,302341.875,-17529.7109375,-20554.908203125,0.0
-31560.681640625,26730.08984375,206034.625,17673.544921875,120988.953125,308991.0,-17412.56640625,-19900.380859375,0.0
-31826.890625,25284.044921875,203020.828125,15608.1767578125,118756.078125,307486.15625,-17683.06640625,-20781.21875,0.0
-31961.60546875,24030.3125,195806.484375,13201.564453125,115840.8515625,300835.96875,-17847.552734375,-21551.28125,0.0
-31754.470703125,25047.7421875,196538.46875,14600.0009765625,117260.2109375,300674.4375,-17623.052734375,-20908.892578125,0.0
-31532.5859375,26703.87109375,204792.96875,17649.5390625,120863.625,307639.84375,-17394.728515625,-19894.748046875,0.0
-31742.736328125,25756.314453125,204712.625,16452.53515625,119677.3515625,308776.625,-17599.91796875,-20465.322265625,0.0
-31956.10546875,24171.798828125,197381.890625,13626.2919921875,116353.828125,302391.96875,-17849.630859375,-21453.447265625,0.0
-31836.078125,24531.88671875,195122.0625,13792.65625,116329.015625,299633.0625,-17712.236328125,-21214.6640625,0.0
-31553.306640625,26452.548828125,202900.65625,17043.359375,120078.2734375,305891.46875,-17411.89453125,-20035.431640625,0.0
-31678.36328125,26170.1796875,205832.3125,17086.07421875,120332.28125,309417.875,-17526.0234375,-20217.41796875,0.0
-31926.267578125,24456.1796875,199338.015625,14229.2529296875,117039.265625,304243.71875,-17812.953125,-21269.515625,0.0
-31910.107421875,24146.654296875,194548.390625,13299.46484375,115751.265625,299325.0,-17804.1015625,-21459.013671875,0.0
-31604.40234375,26011.326171875,200457.578125,16284.5625,119115.359375,303767.9375,-17493.970703125,-20314.3125,0.0
-31602.591796875,26523.224609375,206219.03125,17580.0703125,120795.8984375,309376.59375,-17472.646484375,-19997.677734375,0.0
-31869.404296875,24887.14453125,201449.3125,15014.603515625,117924.0546875,306144.1875,-17755.62109375,-20995.52734375,0.0
-31944.103515625,24000.673828125,194947.515625,13165.82421875,115606.4921875,299888.8125,-17847.955078125,-21550.341796875,0.0
-31675.14453125,25463.41796875,198051.828125,15356.1826171875,117987.5546875,301817.1875,-17560.490234375,-20632.423828125,0.0
-31799.130859375,25374.76953125,203422.15625,15826.84375,118819.9140625,307794.21875,-17670.4609375,-20696.193359375,0.0
-31953.22265625,24036.146484375,196064.1875,13325.3486328125,115812.6875,301073.125,-17860.830078125,-21536.529296875,0.0
-31522.392578125,26651.166015625,204358.78125,17520.123046875,120535.65625,307188.03125,-17411.0234375,-19925.392578125,0.0
-31711.556640625,25847.978515625,205029.59375,16598.984375,119677.28125,308948.78125,-17592.408203125,-20409.732421875,0.0
-31933.44140625,24223.23046875,197793.265625,13823.2333984375,116428.2578125,302738.4375,-17843.998046875,-21424.94921875,0.0
-31838.08984375,24412.05859375,194849.140625,13735.4580078125,116125.8359375,299377.375,-17731.546875,-21284.87109375,0.0
-31539.759765625,26355.453125,202314.265625,16934.998046875,119809.046875,305329.0,-17413.572265625,-20073.98828125,0.0
-31635.984375,26264.32421875,206013.5625,17264.9765625,120396.71875,309460.53125,-17487.869140625,-20133.33203125,0.0
-31895.353515625,24564.072265625,199832.953125,14499.216796875,117238.21875,304648.4375,-17772.451171875,-21193.609375,0.0
-31902.328125,24093.076171875,194546.59375,13288.53515625,115645.921875,299333.59375,-17783.314453125,-21467.126953125,0.0
-31593.806640625,25877.818359375,199909.859375,16061.3359375,118751.046875,303309.03125,-17463.259765625,-20339.59375,0.0
-31574.294921875,26561.24609375,206263.953125,17620.16796875,120727.5703125,309329.25,-17423.2265625,-19927.740234375,0.0
-31850.6953125,24970.158203125,201991.125,15217.78125,118059.2421875,306592.0625,-17719.611328125,-20913.65234375,0.0
-31944.037109375,23954.7421875,195155.578125,13199.4189453125,115565.859375,300085.34375,-17842.12109375,-21555.103515625,0.0
-31686.0078125,25302.751953125,197562.59375,15114.44921875,117609.5703125,301410.6875,-17567.798828125,-20705.37890625,0.0
-31530.5078125,26688.181640625,205546.59375,17730.876953125,120747.484375,308373.625,-17392.44921875,-19868.26171875,0.0
-31774.923828125,25460.400390625,203917.625,16027.205078125,118943.1640625,308162.625,-17634.18359375,-20619.951171875,0.0
-31942.6953125,24052.44140625,196486.703125,13481.85546875,115883.03125,301454.28125,-17841.18359375,-21516.078125,0.0
-31771.705078125,24767.18359375,195743.796875,14284.1044921875,116602.8671875,300012.1875,-17656.9140625,-21052.45703125,0.0
-31515.75390625,26592.42578125,203954.96875,17457.693359375,120314.84375,306782.75,-17392.046875,-19934.982421875,0.0
-31681.984375,25942.861328125,205347.640625,16821.138671875,119792.953125,309129.21875,-17559.013671875,-20327.1875,0.0
-31910.240234375,24288.876953125,198341.25,13938.0322265625,116454.203125,303265.15625,-17826.095703125,-21352.462890625,0.0
-31843.7890625,24310.46875,194764.578125,13532.884765625,115785.328125,299378.84375,-17755.888671875,-21337.7109375,0.0
-31528.763671875,26257.3515625,201736.390625,16767.091796875,119481.2109375,304809.59375,-17439.388671875,-20151.369140625,0.0
-31592.130859375,26373.625,206120.984375,17439.455078125,120463.4375,309419.6875,-17485.119140625,-20091.0859375,0.0
-31846.5390625,24677.59765625,200382.0625,14642.3134765625,117291.2578125,305144.59375,-17767.220703125,-21126.822265625,0.0
-31873.962890625,24078.32421875,194673.921875,13205.38671875,115429.1328125,299496.125,-17802.22265625,-21496.228515625,0.0
-31587.16796875,25769.322265625,199318.109375,15846.6923828125,118358.578125,302796.84375,-17496.98828125,-20439.974609375,0.0
-31524.0703125,26635.005859375,206137.484375,17722.2265625,120699.8046875,309084.4375,-17419.337890625,-19915.9375,0.0
-31792.15625,25110.572265625,202511.0,15359.6025390625,118118.515625,307017.84375,-17692.65625,-20839.154296875,0.0
-31913.392578125,23991.353515625,195448.546875,13184.197265625,115470.1015625,300375.6875,-17834.275390625,-21554.5,0.0
-31482.427734375,26702.462890625,205217.015625,17703.98828125,120659.7734375,307973.59375,-17371.728515625,-19862.49609375,0.0
-31708.404296875,25609.12890625,204316.53125,16233.869140625,119165.5859375,308408.25,-17598.041015625,-20520.306640625,0.0
-31897.90234375,24119.630859375,196928.59375,13542.1376953125,115984.8203125,301855.0,-17829.380859375,-21462.09765625,0.0
-31481.421875,26540.32421875,203495.984375,17283.8203125,120126.21875,306347.5,-17389.23046875,-19948.326171875,0.0
-31638.599609375,26065.103515625,205613.3125,16987.837890625,119982.1171875,309251.25,-17525.955078125,-20241.357421875,0.0
-31881.00390625,24376.921875,198820.890625,14090.7841796875,116622.3828125,303698.28125,-17810.470703125,-21290.234375,0.0
-31830.244140625,24248.17578125,194680.5,13420.3662109375,115618.1640625,299348.125,-17752.46875,-21351.658203125,0.0
-31512.0,26166.08984375,201195.109375,16558.21484375,119166.453125,304362.0,-17419.94140625,-20171.6875,0.0
-31543.11328125,26473.603515625,206263.953125,17523.54296875,120477.65625,309489.375,-17424.3671875,-19993.7890625,0.0
-31821.728515625,24796.955078125,200901.875,14881.4990234375,117499.59375,305616.59375,-17728.328125,-21039.314453125,0.0
-31876.4453125,24049.2890625,194767.125,13214.9755859375,115390.9140625,299644.9375,-17802.423828125,-21501.861328125,0.0
-31592.130859375,25652.37890625,198686.78125,15698.5673828125,118133.671875,302289.53125,-17502.21875,-20505.62109375,0.0
-31503.416015625,26693.814453125,205979.171875,17804.5703125,120737.828125,308890.96875,-17390.83984375,-19863.43359375,0.0
-31769.22265625,25253.869140625,202938.8125,15686.83203125,118451.6484375,307369.03125,-17655.505859375,-20746.349609375,0.0
-31894.416015625,24021.73046875,195730.78125,13325.482421875,115601.1328125,300684.21875,-17823.748046875,-21514.736328125,0.0
-31677.15625,25747.59765625,204654.296875,16479.15625,119353.609375,308646.96875,-17576.58203125,-20449.49609375,0.0
-31881.205078125,24197.4140625,197327.5,13703.3388671875,116084.6015625,302262.28125,-17812.1484375,-21427.564453125,0.0
-31749.912109375,24573.86328125,195140.296875,13894.916015625,116096.8046875,299575.84375,-17675.82421875,-21172.486328125,0.0
-31463.787109375,26493.05078125,202969.46875,17125.099609375,119821.3203125,305900.375,-17384.669921875,-19986.279296875,0.0
-31582.943359375,26205.25,205886.09375,17098.076171875,119995.1953125,309449.0,-17488.740234375,-20166.322265625,0.0
-31830.9140625,24510.62890625,199371.140625,14246.486328125,116715.1875,304251.21875,-17764.5390625,-21220.69921875,0.0
-31817.837890625,24210.490234375,194611.234375,13347.275390625,115467.625,299355.03125,-17752.603515625,-21404.02734375,0.0
-31520.248046875,26061.080078125,200586.25,16348.6669921875,118852.1015625,303854.90625,-17427.921875,-20252.5546875,0.0
-31526.349609375,26536.837890625,206327.65625,17545.06640625,120420.3203125,309477.375,-17409.146484375,-19955.701171875,0.0
-31802.21484375,24894.251953125,201459.578125,15019.2978515625,117589.25,306117.03125,-17707.7421875,-20983.658203125,0.0
-31879.462890625,24012.744140625,194910.5,13226.9111328125,115347.5234375,299778.6875,-17804.771484375,-21539.61328125,0.0
-31608.4921875,25495.134765625,198144.09375,15406.876953125,117728.0546875,301828.78125,-17524.81640625,-20611.76953125,0.0
-31479.208984375,26700.1171875,205828.890625,17743.21484375,120571.1328125,308671.09375,-17385.20703125,-19862.2265625,0.0
-31731.13671875,25352.5078125,203441.265625,15788.0859375,118474.3828125,307778.84375,-17643.236328125,-20684.7265625,0.0
-31884.4921875,24036.482421875,196086.3125,13327.29296875,115514.15625,301047.375,-17826.095703125,-21530.025390625,0.0
-31678.6328125,24938.84375,196150.890625,14509.1416015625,116685.0078125,300281.40625,-17614.333984375,-20965.486328125,0.0
-31440.451171875,26670.076171875,204447.625,17577.25390625,120299.9609375,307231.03125,-17375.08203125,-19897.6328125,0.0
-31641.482421875,25843.888671875,205030.265625,16594.89453125,119368.4921875,308939.25,-17563.708984375,-20387.537109375,0.0
-31869.806640625,24239.189453125,197820.296875,13797.5517578125,116088.625,302756.8125,-17822.7421875,-21399.46875,0.0
-31777.068359375,24451.21875,194926.921875,13741.8955078125,115817.8515625,299439.875,-17716.125,-21264.888671875,0.0
-31482.025390625,26389.115234375,202401.234375,16977.64453125,119538.0078125,305386.65625,-17409.34765625,-20074.859375,0.0
-31581.1328125,26276.998046875,206017.921875,17267.32421875,120083.5703125,309461.28125,-17490.21484375,-20140.70703125,0.0
-31840.63671875,24574.66796875,199810.6875,14504.3134765625,116932.984375,304613.84375,-17774.1953125,-21199.77734375,0.0
-31854.78515625,24130.560546875,194574.140625,13355.4560546875,115410.2265625,299315.34375,-17782.978515625,-21464.244140625,0.0
-31547.740234375,25917.58203125,200001.53125,16134.560546875,118522.0546875,303354.15625,-17464.33203125,-20336.173828125,0.0
-31785.25,24992.01953125,201912.140625,15233.5390625,117774.453125,306495.09375,-17719.947265625,-20931.087890625,0.0
-31512.1328125,26564.12890625,206234.3125,17718.001953125,120351.921875,309272.3125,-17407.267578125,-19970.3203125,2.0
-31771.5703125,24971.701171875,201849.703125,15282.2880859375,117654.765625,306425.0,-17677.03125,-20940.20703125,0.0
-31847.4765625,23985.185546875,195102.46875,13297.7216796875,115192.6953125,299995.21875,-17785.861328125,-21539.279296875,0.0
-31587.638671875,25358.20703125,197691.015625,15252.4482421875,117287.90625,301497.125,-17513.55078125,-20670.712890625,0.0
-31436.2265625,26713.39453125,205621.421875,17807.05078125,120365.7421875,308454.5625,-17349.19921875,-19858.875,0.0
-31679.369140625,25476.224609375,203810.734375,16120.6123046875,118585.6875,308062.84375,-17580.94140625,-20619.75,0.0
-31851.634765625,24078.458984375,196388.53125,13606.17578125,115580.4765625,301333.03125,-17788.142578125,-21506.01953125,0.0
-31676.75390625,24833.634765625,195822.65625,14466.6953125,116389.96875,300040.46875,-17598.107421875,-21020.60546875,0.0
-31431.3984375,26631.51953125,204085.46875,17572.0234375,120044.8828125,306902.65625,-17342.560546875,-19916.67578125,0.0
-31615.3984375,25951.982421875,205284.40625,16873.978515625,119455.796875,309084.90625,-17512.208984375,-20335.904296875,0.0
-31839.02734375,24316.169921875,198180.109375,14048.2705078125,116162.984375,303079.90625,-17775.201171875,-21365.404296875,0.0
-31756.953125,24385.37109375,194756.53125,13711.2509765625,115564.3828125,299315.21875,-17690.64453125,-21314.44140625,0.0
-31437.166015625,26315.353515625,201894.640625,16895.5703125,119215.0078125,304932.84375,-17364.21875,-20110.935546875,0.0
-31493.626953125,26387.37109375,206119.921875,17488.203125,120112.5390625,309440.5,-17398.953125,-20061.515625,0.0
-31747.900390625,24711.458984375,200263.84375,14745.5107421875,117001.5078125,305010.21875,-17683.201171875,-21104.626953125,0.0
-31764.462890625,24140.751953125,194642.75,13380.8701171875,115232.5234375,299420.90625,-17718.5390625,-21451.234375,0.0
-31410.611328125,26700.787109375,206193.8125,17846.48046875,120452.375,309150.28125,-17325.728515625,-19863.634765625,0.0
-31803.623046875,24062.701171875,195387.265625,13360.8203125,115249.6953125,300308.03125,-17729.669921875,-21488.71875,0.0
-31552.904296875,25286.189453125,197187.953125,15099.09375,117090.5625,301101.4375,-17460.041015625,-20697.935546875,0.0
-31375.54296875,26772.3359375,205327.65625,17847.75390625,120381.4296875,308123.0625,-17263.904296875,-19792.220703125,0.0
-31606.212890625,25644.197265625,204228.484375,16350.8798828125,118839.359375,308361.78125,-17485.38671875,-20477.66015625,0.0
-31793.36328125,24166.30078125,196842.5625,13673.8349609375,115662.6171875,301785.40625,-17710.0234375,-21404.4296875,0.0
-31647.919921875,24748.474609375,195514.859375,14243.8037109375,116124.5625,299831.9375,-17545.73828125,-21036.564453125,0.0
-31376.48046875,26628.904296875,203644.96875,17474.591796875,119892.734375,306482.53125,-17265.982421875,-19886.634765625,0.0
-31522.794921875,26110.5,205587.828125,17102.904296875,119674.734375,309248.03125,-17407.46875,-20202.533203125,0.0
-31755.947265625,24432.64453125,198727.6875,14231.33203125,116351.0078125,303601.78125,-17690.978515625,-21247.3203125,0.0
-31715.9140625,24327.435546875,194689.28125,13646.8115234375,115468.4921875,299324.75,-17650.544921875,-21301.232421875,0.0
-31409.673828125,26246.623046875,201340.28125,16772.658203125,119031.671875,304471.5625,-17324.455078125,-20113.349609375,0.0
-31449.16796875,26506.662109375,206264.359375,17643.50390625,120243.8359375,309497.09375,-17337.396484375,-19955.701171875,0.0
-31711.623046875,24826.728515625,200842.734375,14948.419921875,117200.734375,305566.78125,-17627.880859375,-20983.7265625,0.0
-31767.078125,24119.96484375,194805.890625,13358.33984375,115181.5,299659.125,-17684.005859375,-21430.380859375,0.0
-31479.880859375,25738.6796875,198912.21875,15821.8818359375,117905.4140625,302493.5625,-17376.22265625,-20419.5234375,0.0
-31390.16015625,26754.96875,206100.875,17911.658203125,120483.6875,309017.6875,-17269.470703125,-19810.05859375,0.0
-31654.224609375,25289.341796875,202872.765625,15779.435546875,118169.140625,307310.625,-17547.94921875,-20706.384765625,0.0
-31802.68359375,24072.826171875,195704.625,13451.6806640625,115346.71875,300652.03125,-17714.44921875,-21459.6171875,0.0
-31593.806640625,25146.916015625,196739.890625,14914.7587890625,116863.3125,300759.65625,-17483.7109375,-20787.3203125,0.0
-31388.484375,26745.3125,204940.484375,17852.6484375,120357.625,307717.15625,-17269.873046875,-19817.970703125,0.0
-31602.189453125,25747.462890625,204578.3125,16572.564453125,119080.625,308613.4375,-17483.77734375,-20420.73046875,0.0
-31799.0625,24215.18359375,197276.40625,13822.3623046875,115837.3671875,302234.125,-17716.19140625,-21372.578125,0.0
-31669.4453125,24632.736328125,195260.859375,14106.3408203125,115957.328125,299695.34375,-17573.564453125,-21098.0546875,0.0
-31391.8359375,26539.85546875,203130.734375,17340.212890625,119706.3828125,306059.625,-17278.72265625,-19920.498046875,0.0
-31525.478515625,26204.9140625,205834.1875,17241.84375,119802.609375,309433.375,-17399.220703125,-20131.521484375,0.0
-31773.24609375,24521.15625,199269.890625,14401.3837890625,116529.78125,304150.375,-17675.35546875,-21175.638671875,0.0
-31757.421875,24255.751953125,194678.015625,13512.0302734375,115298.84375,299420.5625,-17661.33984375,-21337.509765625,0.0
-31461.10546875,26103.66015625,200758.78125,16533.94140625,118718.6640625,304017.59375,-17355.970703125,-20204.208984375,0.0
-31472.638671875,26533.216796875,206304.71875,17703.787109375,120267.1640625,309474.46875,-17341.21875,-19939.474609375,0.0
-31744.48046875,24881.578125,201338.875,15093.1923828125,117346.0390625,306040.125,-17633.646484375,-20950.935546875,0.0
-31810.595703125,24049.021484375,194947.90625,13317.033203125,115110.0859375,299859.78125,-17716.056640625,-21471.015625,0.0
-31535.8046875,25556.2890625,198348.75,15556.41015625,117548.8828125,302057.90625,-17428.255859375,-20533.986328125,0.0
-31419.59765625,26726.603515625,205846.46875,17915.009765625,120426.5546875,308716.75,-17289.51953125,-19831.11328125,0.0
-31666.830078125,25361.494140625,203299.703125,15937.88671875,118296.8828125,307665.75,-17547.81640625,-20646.03515625,0.0
-31821.794921875,24061.6953125,196041.71875,13462.7451171875,115311.7890625,301020.21875,-17729.1328125,-21453.783203125,0.0
-31400.353515625,26685.900390625,204583.34375,17657.048828125,120048.765625,307414.9375,-17283.953125,-19841.037109375,0.0
-31596.220703125,25843.3515625,204988.09375,16676.232421875,119113.546875,308956.21875,-17467.953125,-20351.193359375,0.0
-31808.25,24260.37890625,197777.3125,13846.970703125,115793.1796875,302768.09375,-17710.55859375,-21347.43359375,0.0
-31708.068359375,24507.8125,195051.109375,13873.927734375,115617.890625,299588.25,-17599.58203125,-21187.23828125,0.0
-31421.67578125,26432.298828125,202567.875,17138.51171875,119384.1171875,305563.34375,-17303.6015625,-20001.701171875,0.0
-31374.73828125,26736.05859375,204939.0,17924.935546875,120210.171875,307721.125,-17263.76953125,-19811.064453125,0.0
-31595.685546875,25712.52734375,204510.59375,16597.509765625,118870.40625,308563.8125,-17478.48046875,-20416.23828125,0.0
-31791.552734375,24180.78515625,197189.640625,13827.591796875,115596.234375,302154.875,-17719.8125,-21380.15625,0.0
-31663.208984375,24614.900390625,195217.46875,14162.0634765625,115765.4140625,299632.65625,-17582.953125,-21104.42578125,0.0
-31379.833984375,26521.615234375,203085.59375,17429.732421875,119547.6640625,305977.34375,-17287.306640625,-19942.626953125,0.0
-31504.556640625,26173.8671875,205735.5625,17305.947265625,119612.7109375,309314.03125,-17396.47265625,-20146.138671875,0.0
-31737.505859375,24254.814453125,194561.34375,13716.0791015625,115243.9921875,299228.4375,-17663.3515625,-21346.763671875,0.0
-31786.12109375,24070.2109375,194829.890625,13472.333984375,114976.5078125,299679.0625,-17724.908203125,-21475.7109375,0.0
-31508.916015625,25579.958984375,198318.25,15680.2607421875,117387.4140625,301978.90625,-17441.130859375,-20527.28125,0.0
-31396.060546875,26735.119140625,205808.78125,17979.048828125,120192.0625,308660.3125,-17306.216796875,-19838.421875,0.0
-31647.18359375,25369.271484375,203179.609375,16033.2392578125,118097.53125,307515.8125,-17563.306640625,-20661.32421875,0.0
-31798.861328125,24078.994140625,195875.75,13649.4267578125,115213.4140625,300795.53125,-17738.251953125,-21468.19921875,0.0
-31597.16015625,25015.890625,196237.109375,14878.0126953125,116437.4453125,300311.9375,-17515.294921875,-20869.330078125,0.0
-31365.08203125,26710.376953125,204552.96875,17904.818359375,120014.3046875,307305.375,-17277.583984375,-19826.888671875,0.0
-31560.615234375,25839.73046875,204883.6875,16837.1640625,118984.671875,308812.65625,-17460.107421875,-20335.63671875,0.0
-31776.263671875,24261.05078125,197623.890625,14092.728515625,115757.5703125,302544.3125,-17703.115234375,-21326.982421875,0.0
-31675.14453125,24517.134765625,194945.703125,14146.373046875,115612.796875,299412.03125,-17587.3125,-21152.50390625,0.0
-31382.248046875,26450.537109375,202536.421875,17368.107421875,119337.4453125,305477.53125,-17279.193359375,-19956.439453125,0.0
-31494.296875,26275.857421875,205963.671875,17529.509765625,119734.2109375,309425.0625,-17372.064453125,-20058.162109375,0.0
-31764.328125,24560.919921875,199644.59375,14706.2841796875,116502.0859375,304467.125,-17670.326171875,-21128.564453125,0.0
-31759.76953125,24160.734375,194520.640625,13682.015625,115108.5390625,299256.0,-17666.50390625,-21374.92578125,0.0
-31447.291015625,25974.244140625,200103.25,16541.384765625,118318.8125,303416.59375,-17345.376953125,-20246.990234375,0.0
-31427.17578125,26589.341796875,206172.890625,18035.306640625,120229.2109375,309209.46875,-17309.30078125,-19881.404296875,0.0
-31687.751953125,24995.70703125,201689.984375,15589.6025390625,117510.328125,306258.1875,-17590.73046875,-20854.845703125,0.0
-31779.28125,24035.275390625,195038.765625,13581.6337890625,115029.21875,299924.40625,-17692.923828125,-21445.9375,0.0
-31514.48046875,25415.5390625,197761.34375,15571.2958984375,117172.90625,301535.875,-17413.638671875,-20574.62109375,0.0
-31374.267578125,26730.626953125,205595.875,18125.8984375,120257.7109375,308393.34375,-17251.431640625,-19778.744140625,0.0
-31535.9375,25545.4921875,198296.65625,15766.1591796875,117242.84375,302000.90625,-17442.001953125,-20533.046875,0.0
-31420.939453125,26680.3359375,205779.484375,18044.62890625,120024.296875,308682.4375,-17311.982421875,-19846.46875,0.0
-31672.931640625,25318.041015625,203110.140625,16059.6591796875,117889.0546875,307507.09375,-17567.73046875,-20678.7578125,0.0
-31822.666015625,24052.642578125,195822.453125,13669.9453125,115001.25,300798.40625,-17750.45703125,-21488.919921875,0.0
-31619.82421875,24993.025390625,196210.09375,14894.0380859375,116228.03125,300343.78125,-17537.490234375,-20888.10546875,0.0
-31399.681640625,26672.154296875,204472.5,17908.974609375,119795.8359375,307291.6875,-17301.25390625,-19858.203125,0.0
-31607.955078125,25803.052734375,204731.9375,16855.203125,118780.484375,308716.34375,-17497.189453125,-20388.8125,0.0
-31807.37890625,24234.02734375,197498.15625,14065.5712890625,115502.15625,302489.21875,-17748.4453125,-21370.767578125,0.0
-31698.14453125,24511.568359375,194919.75,14121.830078125,115353.765625,299460.84375,-17631.8359375,-21182.544921875,0.0
-31409.94140625,26434.376953125,202517.515625,17358.451171875,119094.7109375,305538.53125,-17321.4375,-20000.6953125,0.0
-31513.33984375,26245.482421875,205823.59375,17543.79296875,119518.09375,309363.5625,-17401.3671875,-20107.58203125,0.0
-31455.673828125,26564.12890625,206079.421875,18028.53515625,120016.6484375,309207.59375,-17318.419921875,-19900.380859375,0.0
-31724.900390625,24977.06640625,201581.015625,15515.037109375,117232.3125,306263.21875,-17601.259765625,-20874.560546875,0.0
-31826.220703125,24033.1953125,194940.34375,13568.8935546875,114825.3046875,299917.5,-17715.654296875,-21474.63671875,0.0
-31566.716796875,25424.927734375,197687.25,15637.6806640625,117070.9765625,301528.4375,-17441.533203125,-20602.115234375,0.0
-31424.224609375,26711.716796875,205483.96875,18108.599609375,120073.4453125,308387.25,-17287.57421875,-19818.91015625,0.0
-31666.427734375,25433.779296875,203477.46875,16344.845703125,118205.890625,307833.71875,-17528.83984375,-20596.68359375,0.0
-31837.083984375,24062.365234375,196102.40625,13810.2919921875,115175.6640625,301154.28125,-17728.462890625,-21457.134765625,0.0
-31656.50390625,24855.494140625,195762.234375,14741.6220703125,116064.484375,300073.0,-17530.984375,-20947.046875,0.0
-31410.142578125,26623.205078125,204050.25,17806.984375,119678.5546875,306986.125,-17273.828125,-19847.072265625,0.0
-31601.451171875,25901.958984375,205042.46875,17040.005859375,119008.0078125,309002.28125,-17450.921875,-20289.50390625,0.0
-31829.103515625,24284.05078125,197905.1875,14243.6025390625,115741.0078125,302949.875,-17711.966796875,-21311.89453125,0.0
-31743.33984375,24403.9453125,194634.5,14040.626953125,115290.734375,299311.46875,-17613.529296875,-21225.2578125,0.0
-31445.548828125,26315.95703125,201914.484375,17160.83984375,118875.90625,305090.34375,-17307.087890625,-20034.89453125,0.0
-31528.697265625,26314.080078125,205941.21875,17643.705078125,119651.6640625,309456.59375,-17373.94140625,-20045.958984375,0.0
-31789.072265625,24624.890625,199989.9375,14877.54296875,116509.859375,304917.28125,-17669.990234375,-21091.818359375,0.0
-31811.267578125,24095.55859375,194488.578125,13598.8671875,114834.890625,299422.625,-17704.724609375,-21422.669921875,0.0
-31508.177734375,25824.912109375,199477.5,16300.9912109375,117858.546875,303045.09375,-17391.509765625,-20338.921875,0.0
-31461.57421875,26592.76171875,206041.53125,18007.078125,120007.8671875,309182.71875,-17319.89453125,-19876.443359375,0.0
-31724.228515625,25058.134765625,202115.375,15654.0419921875,117406.5234375,306806.6875,-17588.71875,-20816.7578125,0.0
-31837.28515625,23991.890625,195192.9375,13587.19921875,114858.2890625,300259.28125,-17727.994140625,-21490.796875,0.0
-31589.11328125,25256.75390625,197229.796875,15348.404296875,116732.1484375,301285.09375,-17465.47265625,-20686.671875,0.0
-31416.982421875,26698.91015625,205264.6875,18068.03125,120000.7578125,308218.0625,-17279.259765625,-19815.556640625,0.0
-31649.865234375,25539.79296875,203923.859375,16514.361328125,118396.796875,308232.625,-17515.8984375,-20523.32421875,0.0
-31827.896484375,24098.57421875,196542.75,13845.8984375,115225.3515625,301643.4375,-17726.65234375,-21427.900390625,0.0
-31674.33984375,24719.3046875,195455.390625,14486.87890625,115755.625,299904.09375,-17560.556640625,-21032.67578125,0.0
-31408.3984375,26561.044921875,203638.734375,17638.408203125,119436.484375,306637.4375,-17288.044921875,-19901.38671875,0.0
-31572.21484375,26011.99609375,205398.0625,17178.408203125,119117.9765625,309263.9375,-17435.767578125,-20240.486328125,0.0
-31804.091796875,24370.953125,198479.3125,14375.298828125,115865.2578125,303515.03125,-17704.658203125,-21269.515625,0.0
-31740.724609375,24320.52734375,194563.625,13908.05859375,115119.140625,299311.78125,-17646.65625,-21296.806640625,0.0
-31489.73828125,26412.919921875,206063.59375,17751.462890625,119734.078125,309458.78125,-17364.017578125,-20010.150390625,0.0
-31767.14453125,24735.33203125,200511.953125,15075.556640625,116705.328125,305371.09375,-17663.62109375,-21049.91015625,0.0
-31812.943359375,24071.88671875,194578.375,13591.490234375,114803.4375,299523.40625,-17722.16015625,-21461.158203125,0.0
-31519.912109375,25713.3984375,198903.5625,16115.1142578125,117604.7421875,302550.21875,-17412.296875,-20436.623046875,0.0
-31445.951171875,26656.060546875,205906.8125,18112.220703125,120092.890625,308937.71875,-17323.8515625,-19869.201171875,0.0
-31713.568359375,25183.86328125,202591.40625,15863.6572265625,117634.6484375,307173.8125,-17592.005859375,-20756.9453125,0.0
-31849.689453125,24022.6015625,195498.640625,13621.5986328125,114899.3984375,300557.28125,-17745.896484375,-21495.759765625,0.0
-31617.8125,25128.54296875,196749.828125,15148.4462890625,116484.71875,300861.90625,-17499.46875,-20792.88671875,0.0
-31416.84765625,26692.875,204950.546875,18003.724609375,119891.2578125,307858.65625,-17283.1484375,-19838.556640625,0.0
-31644.298828125,25662.1015625,204376.8125,16679.384765625,118550.2890625,308564.0625,-17506.375,-20469.478515625,0.0
-31847.142578125,24147.861328125,197031.984375,13966.7314453125,115338.7421875,302107.78125,-17749.451171875,-21426.357421875,0.0
-31714.037109375,24606.853515625,195177.578125,14354.7802734375,115584.90625,299691.59375,-17605.751953125,-21139.025390625,0.0
-31436.16015625,26490.099609375,203068.5625,17595.4921875,119355.28125,306075.3125,-17323.11328125,-19977.896484375,0.0
-31567.65625,26103.66015625,205594.40625,17391.845703125,119340.796875,309328.5,-17441.33203125,-20199.24609375,0.0
-31798.326171875,24438.34375,198958.28125,14568.015625,116086.0703125,303956.25,-17707.005859375,-21229.482421875,0.0
-31758.427734375,24222.89453125,194465.109375,13823.0322265625,115024.25,299273.71875,-17674.013671875,-21352.73046875,0.0
-31462.177734375,26074.826171875,200702.734375,16806.923828125,118416.2421875,304042.0,-17369.91796875,-20212.791015625,0.0
-31484.23828125,26462.5390625,206096.65625,17879.470703125,119862.2890625,309405.46875,-17371.9296875,-19982.658203125,0.0
-31747.02734375,24827.533203125,201049.203125,15266.1953125,116927.6171875,305879.78125,-17649.60546875,-20979.501953125,0.0
-31812.943359375,24028.904296875,194726.703125,13583.17578125,114803.3046875,299736.71875,-17726.65234375,-21481.275390625,0.0
-31542.173828125,25551.796875,198264.9375,15929.4384765625,117391.5078125,302033.4375,-17434.291015625,-20538.076171875,0.0
-31420.73828125,26675.775390625,205733.609375,18103.30078125,120072.234375,308747.0,-17305.076171875,-19850.759765625,0.0
-31675.48046875,25300.0703125,203043.6875,16036.32421875,117841.984375,307583.65625,-17559.55078125,-20680.76953125,0.0
-31826.48828125,24037.755859375,195738.828125,13705.8203125,115015.6015625,300832.21875,-17737.6484375,-21488.048828125,0.0
-31610.90625,24996.779296875,196216.59375,14943.994140625,116254.921875,300460.25,-17513.685546875,-20874.224609375,0.0
-31390.16015625,26667.05859375,204487.859375,17902.806640625,119764.0546875,307440.15625,-17284.490234375,-19857.66796875,0.0
-31602.255859375,25780.38671875,204686.140625,16816.779296875,118707.53125,308816.1875,-17482.572265625,-20393.439453125,0.0
-31816.765625,24211.02734375,197417.09375,14097.4892578125,115505.84375,302517.25,-17733.89453125,-21384.849609375,0.0
-31704.515625,24494.46875,194893.125,14175.8095703125,115391.1796875,299529.375,-17617.75390625,-21188.646484375,0.0
-31418.927734375,26402.2578125,202528.640625,17382.32421875,119098.4609375,305645.5,-17321.50390625,-20023.427734375,0.0
-31535.53515625,26190.49609375,205758.765625,17490.751953125,119441.921875,309427.0625,-17422.35546875,-20153.849609375,0.0
-31793.02734375,24503.857421875,199378.515625,14726.5341796875,116270.6796875,304380.15625,-17710.357421875,-21196.693359375,1.0
-31789.33984375,24137.1328125,194431.515625,13679.19921875,114861.4453125,299353.15625,-17703.919921875,-21412.677734375,0.0
-31492.888671875,25953.0546875,200139.125,16533.671875,118084.1171875,303638.0,-17385.341796875,-20290.107421875,0.0
-31491.01171875,26520.275390625,206079.015625,17955.04296875,119930.1484375,309336.28125,-17360.1953125,-19964.28515625,0.0
-31757.7578125,24915.44140625,201531.53125,15476.279296875,117176.4609375,306315.1875,-17649.337890625,-20941.4140625,0.0
-31843.587890625,23971.70703125,194923.703125,13530.0009765625,114763.2734375,300002.9375,-17758.302734375,-21517.216796875,0.0
-31582.072265625,25383.0859375,197767.109375,15611.529296875,117022.09375,301700.15625,-17480.76171875,-20637.453125,0.0
-31448.69921875,26647.61328125,205528.21875,18077.75390625,120020.671875,308525.1875,-17330.556640625,-19877.248046875,0.0
-31698.48046875,25360.48828125,203480.6875,16253.1806640625,118083.4453125,307934.09375,-17578.125,-20659.111328125,0.0
-31854.583984375,24009.861328125,196159.125,13721.376953125,115037.6015625,301297.4375,-17777.94921875,-21510.376953125,0.0
-31673.603515625,24816.736328125,195874.890625,14697.6337890625,115967.8515625,300251.03125,-17590.529296875,-21004.3125,0.0
-31438.306640625,26582.63671875,204101.828125,17834.611328125,119659.984375,307072.90625,-17337.53125,-19927.404296875,0.0
-31617.677734375,25848.8515625,205051.453125,17034.978515625,118947.453125,309050.28125,-17505.83984375,-20364.134765625,0.0
-31768.888671875,24342.65625,194697.9375,13997.7783203125,115200.4765625,299406.0,-17674.68359375,-21298.55078125,0.0
-31469.486328125,26267.275390625,201910.453125,17168.8203125,118853.9140625,305094.625,-17371.05859375,-20117.171875,0.0
-31555.18359375,26257.3515625,205875.96875,17603.203125,119578.0390625,309420.5,-17439.3203125,-20137.7578125,0.0
-31821.458984375,24567.55859375,199908.65625,14819.607421875,116405.7890625,304865.96875,-17738.990234375,-21182.34375,0.0
-31836.546875,24057.068359375,194483.828125,13540.998046875,114724.78125,299441.21875,-17765.544921875,-21498.77734375,0.0
-31525.208984375,25802.58203125,199500.421875,16296.431640625,117800.0703125,303072.4375,-17450.384765625,-20418.3828125,0.0
-31471.36328125,26571.169921875,206013.234375,17963.4921875,119912.578125,309178.84375,-17380.4453125,-19954.025390625,0.0
-31746.021484375,25021.1875,202026.390625,15581.48828125,117286.0234375,306749.21875,-17668.984375,-20903.259765625,0.0
-31857.267578125,23977.541015625,195113.203125,13561.5166015625,114796.9375,300194.25,-17795.853515625,-21556.51171875,0.0
-31606.546875,25253.064453125,197191.640625,15395.74609375,116751.53125,301227.03125,-17523.9453125,-20746.484375,0.0
-31431.064453125,26668.533203125,205213.203125,18066.421875,119971.5234375,308184.125,-17327.40625,-19874.498046875,0.0
-31661.130859375,25501.4375,203862.640625,16484.38671875,118330.75,308222.625,-17546.7421875,-20567.982421875,0.0
-31844.66015625,24069.875,196508.890625,13859.041015625,115203.2890625,301645.3125,-17761.38671875,-21464.04296875,0.0
-31692.244140625,24708.7109375,195458.140625,14511.1533203125,115759.8515625,299939.84375,-17592.138671875,-21061.375,0.0
-31434.08203125,26541.8671875,203575.90625,17689.236328125,119482.2890625,306605.1875,-17324.72265625,-19950.875,0.0
-31828.8359375,24320.796875,198340.03125,14374.025390625,115851.1796875,303426.4375,-17734.966796875,-21314.77734375,0.0
-31758.763671875,24281.435546875,194535.25,13891.4287109375,115077.296875,299346.65625,-17663.822265625,-21322.220703125,0.0
-31462.78125,26181.9140625,201334.453125,17004.736328125,118637.9296875,304636.53125,-17356.10546875,-20151.90625,0.0
-31521.7890625,26355.38671875,205954.015625,17785.794921875,119759.4921875,309420.4375,-17390.1015625,-20055.078125,0.0
-31782.90234375,24692.818359375,200416.53125,15073.880859375,116693.4609375,305354.0,-17676.830078125,-21079.748046875,0.0
-31834.736328125,24033.12890625,194510.171875,13583.6455078125,114787.484375,299540.4375,-17733.08984375,-21489.92578125,0.0
-31549.08203125,25672.96484375,198880.765625,16128.6591796875,117619.4921875,302601.3125,-17431.408203125,-20466.328125,0.0
-31473.576171875,26607.044921875,205872.015625,18096.259765625,120070.359375,308999.125,-17338.46875,-19907.01953125,0.0
-31740.189453125,25129.21484375,202450.59375,15897.453125,117679.4375,307117.6875,-17612.658203125,-20805.4921875,0.0
-31872.623046875,23975.662109375,195320.34375,13660.892578125,114953.4453125,300464.34375,-17767.958984375,-21535.255859375,0.0
-31642.958984375,25111.17578125,196626.78125,15220.6640625,116586.3046875,300816.78125,-17523.9453125,-20830.236328125,0.0
-31446.755859375,26660.6875,204842.25,18000.908203125,119918.4140625,307862.875,-17310.708984375,-19882.74609375,0.0
-31716.919921875,24593.576171875,195118.703125,14322.7275390625,115578.8671875,299744.90625,-17609.439453125,-21149.28515625,0.0
-31440.451171875,26468.57421875,203035.375,17535.544921875,119329.0625,306170.125,-17326.466796875,-20003.712890625,0.0
-31585.42578125,26059.068359375,205491.203125,17303.466796875,119283.3984375,309377.0,-17450.853515625,-20245.24609375,0.0
-31826.689453125,24388.521484375,198818.9375,14485.3369140625,116030.015625,303967.5625,-17722.025390625,-21284.736328125,0.0
-31800.13671875,24185.74609375,194395.84375,13755.6416015625,114977.515625,299352.15625,-17689.90625,-21410.197265625,0.0
-31504.490234375,26044.181640625,200699.4375,16757.369140625,118389.21875,304174.5,-17385.20703125,-20259.529296875,0.0
-31525.478515625,26404.671875,206016.921875,17833.60546875,119842.2421875,309474.15625,-17384.603515625,-20038.314453125,0.0
-31792.9609375,24759.470703125,200871.84375,15216.6416015625,116913.3984375,305848.0625,-17667.107421875,-21049.57421875,0.0
-31853.109375,23977.47265625,194612.90625,13518.7353515625,114767.296875,299779.4375,-17738.990234375,-21537.87109375,0.0
-31568.52734375,25520.75,198274.796875,15854.068359375,117324.515625,302212.28125,-17447.30078125,-20569.123046875,0.0
-31467.810546875,26611.8046875,205661.59375,18055.759765625,120034.421875,308841.0,-17331.8984375,-19909.43359375,0.0
-31728.587890625,25210.015625,202878.40625,16015.0009765625,117838.625,307574.6875,-17593.01171875,-20752.5859375,0.0
-31870.947265625,23961.71484375,195614.578125,13703.47265625,115038.9375,300856.40625,-17765.87890625,-21536.931640625,0.0
-31659.72265625,24927.310546875,196190.25,14924.615234375,116263.3671875,300589.8125,-17544.798828125,-20919.083984375,0.0
-31449.50390625,26586.458984375,204462.046875,17908.37109375,119796.375,307560.125,-17317.81640625,-19917.48046875,0.0
-31654.828125,25685.4375,204551.5,16820.46875,118743.40625,308824.375,-17516.970703125,-20461.03125,0.0
-31852.70703125,24135.791015625,197288.078125,14085.888671875,115529.046875,302528.5625,-17758.63671875,-21429.84375,0.0
-31741.865234375,24425.939453125,194800.0625,14195.9267578125,115452.3359375,299566.0625,-17644.77734375,-21239.609375,0.0
-31453.59375,26335.404296875,202467.953125,17408.876953125,119175.4453125,305723.46875,-17344.572265625,-20074.79296875,0.0
-31569.869140625,26120.759765625,205662.59375,17533.533203125,119548.6015625,309472.75,-17440.193359375,-20210.779296875,0.0
-31812.80859375,24431.302734375,199292.15625,14706.41796875,116319.7578125,304442.59375,-17722.16015625,-21248.2578125,0.0
-31803.48828125,24085.96875,194397.796875,13674.5048828125,114925.078125,299462.46875,-17714.515625,-21460.82421875,0.0
-31502.27734375,25909.53515625,200095.8125,16594.89453125,118220.109375,303714.78125,-17395.935546875,-20344.689453125,0.0
-31494.765625,26464.619140625,205983.390625,17947.533203125,119989.15625,309395.34375,-17362.876953125,-20010.3515625,0.0
-31760.439453125,24863.00390625,201352.828125,15460.1181640625,117227.8203125,306292.4375,-17641.9609375,-20982.18359375,0.0
-31844.59375,23943.341796875,194787.984375,13552.93359375,114866.4765625,299999.3125,-17747.439453125,-21553.896484375,0.0
-31597.6953125,25342.44921875,197676.328125,15619.9111328125,117129.046875,301740.1875,-17475.6640625,-20683.787109375,0.0
-31468.146484375,26597.25390625,205404.296875,18070.310546875,120115.890625,308538.78125,-17332.904296875,-19924.119140625,0.0
-31716.048828125,25314.419921875,203301.71875,16232.05859375,118165.453125,307894.40625,-17583.2890625,-20693.310546875,0.0
-31876.51171875,23970.1640625,195976.140625,13740.62109375,115175.125,301228.5625,-17779.291015625,-21537.46875,0.0
-31690.76953125,24772.01171875,195725.015625,14727.0712890625,116131.0,300214.21875,-17587.177734375,-21023.7578125,0.0
-31451.58203125,26532.814453125,203967.640625,17792.8359375,119751.046875,307068.8125,-17340.4140625,-19958.384765625,0.0
-31637.392578125,25792.5234375,204842.921875,16991.99609375,119031.2734375,308987.65625,-17513.21484375,-20402.087890625,0.0
-31853.646484375,24197.75,197744.78125,14206.587890625,115764.2734375,302953.5625,-17760.984375,-21397.9921875,0.0
-31768.486328125,24323.009765625,194576.828125,14035.060546875,115354.8359375,299398.15625,-17676.16015625,-21304.5859375,0.0
-31476.794921875,26229.322265625,201838.4375,17235.80859375,119043.0078125,305123.53125,-17378.501953125,-20130.716796875,0.0
-31559.072265625,26194.720703125,205754.9375,17624.326171875,119715.1015625,309421.25,-17443.544921875,-20151.90625,0.0
-31816.765625,24511.3671875,199796.546875,14823.83203125,116532.9296875,304886.09375,-17725.51171875,-21179.52734375,0.0
-31829.70703125,24004.765625,194366.671875,13609.5283203125,114934.3984375,299444.5625,-17748.4453125,-21490.998046875,0.0
-31542.107421875,25742.501953125,199440.953125,16333.0439453125,117985.4765625,303135.96875,-17447.970703125,-20428.306640625,0.0
-31505.2265625,26496.26953125,205920.5625,18011.97265625,120117.90625,309208.28125,-17387.21875,-19990.97265625,0.0
-31768.888671875,24950.4453125,201839.171875,15676.0361328125,117551.5625,306661.90625,-17663.888671875,-20933.43359375,0.0
-31869.26953125,23917.32421875,195034.609375,13585.3212890625,114986.8359375,300235.0,-17791.6953125,-21569.251953125,0.0
-31621.5,25190.234375,197209.28125,15379.65234375,116895.8984375,301377.78125,-17533.869140625,-20770.625,0.0
-31468.078125,26587.59765625,205141.109375,18032.22265625,120077.9375,308240.65625,-17365.89453125,-19934.109375,0.0
-31705.72265625,25412.65625,203730.609375,16442.8125,118408.734375,308213.03125,-17607.427734375,-20645.701171875,0.0
-31879.462890625,23997.12109375,196382.359375,13845.6298828125,115303.7421875,301636.0625,-17810.337890625,-21529.353515625,0.0
-31718.931640625,24647.220703125,195406.90625,14529.861328125,115885.4453125,300004.46875,-17624.9296875,-21107.041015625,0.0
-31466.06640625,26468.91015625,203496.578125,17742.74609375,119645.5625,306636.25,-17357.177734375,-20003.646484375,0.0
-31630.3515625,25883.115234375,205093.296875,17238.2890625,119281.7265625,309133.5625,-17507.8515625,-20357.294921875,0.0
-31801.677734375,24213.91015625,194438.15625,13952.7841796875,115256.53125,299378.65625,-17712.97265625,-21378.412109375,0.0
-31492.419921875,26112.646484375,201270.890625,17078.697265625,118837.015625,304691.4375,-17406.1953125,-20209.23828125,0.0
-31536.072265625,26267.4765625,205897.703125,17768.16015625,119844.1796875,309511.6875,-17437.376953125,-20107.314453125,0.0
-31800.60546875,24594.716796875,200328.359375,15060.0,116775.6015625,305413.15625,-17725.177734375,-21128.162109375,0.0
-31846.60546875,23945.01953125,194476.921875,13598.0625,114890.609375,299638.21875,-17775.267578125,-21527.275390625,0.0
-31556.591796875,25585.255859375,198883.109375,16140.9306640625,117711.2265625,302729.59375,-17478.01171875,-20507.23046875,0.0
-31488.1953125,26499.0859375,205802.28125,18102.09375,120153.5078125,309050.6875,-17393.052734375,-19964.955078125,0.0
-31754.001953125,25017.43359375,202339.140625,15863.0537109375,117705.3203125,307123.875,-17674.1484375,-20872.8828125,0.0
-31886.705078125,23863.2109375,195245.375,13649.4931640625,115003.46875,300495.1875,-17831.794921875,-21601.23828125,0.0
-31654.291015625,24995.908203125,196627.78125,15208.9296875,116643.4375,300925.21875,-17579.265625,-20869.798828125,0.0
-31465.798828125,26531.13671875,204816.828125,18004.462890625,120000.0234375,307939.53125,-17376.2890625,-19935.25,0.0
-31686.544921875,25486.015625,204098.53125,16676.8359375,118667.5625,308501.59375,-17587.646484375,-20573.482421875,0.0
-31884.693359375,23982.099609375,196755.796875,13983.0927734375,115481.3046875,302030.0,-17817.84765625,-21503.203125,0.0
-31752.125,24455.107421875,195014.640625,14407.2841796875,115764.609375,299715.28125,-17674.884765625,-21194.4140625,0.0
